# Wavelength table for hrs,g270m
2200.000 
2200.096 
2200.192 
2200.288 
2200.384 
2200.480 
2200.576 
2200.672 
2200.768 
2200.864 
2200.960 
2201.056 
2201.152 
2201.248 
2201.344 
2201.440 
2201.536 
2201.632 
2201.728 
2201.824 
2201.920 
2202.016 
2202.112 
2202.208 
2202.304 
2202.400 
2202.496 
2202.592 
2202.688 
2202.784 
2202.880 
2202.976 
2203.072 
2203.168 
2203.264 
2203.359 
2203.455 
2203.551 
2203.647 
2203.743 
2203.839 
2203.935 
2204.031 
2204.127 
2204.223 
2204.319 
2204.415 
2204.511 
2204.607 
2204.703 
2204.799 
2204.895 
2204.991 
2205.087 
2205.183 
2205.279 
2205.375 
2205.471 
2205.567 
2205.663 
2205.759 
2205.854 
2205.950 
2206.046 
2206.142 
2206.238 
2206.334 
2206.430 
2206.526 
2206.622 
2206.718 
2206.814 
2206.910 
2207.006 
2207.102 
2207.198 
2207.294 
2207.390 
2207.485 
2207.581 
2207.677 
2207.773 
2207.869 
2207.965 
2208.061 
2208.157 
2208.253 
2208.349 
2208.445 
2208.541 
2208.637 
2208.733 
2208.829 
2208.924 
2209.020 
2209.116 
2209.212 
2209.308 
2209.404 
2209.500 
2209.596 
2209.692 
2209.788 
2209.884 
2209.980 
2210.075 
2210.171 
2210.267 
2210.363 
2210.459 
2210.555 
2210.651 
2210.747 
2210.843 
2210.939 
2211.035 
2211.130 
2211.226 
2211.322 
2211.418 
2211.514 
2211.610 
2211.706 
2211.802 
2211.898 
2211.994 
2212.089 
2212.185 
2212.281 
2212.377 
2212.473 
2212.569 
2212.665 
2212.761 
2212.857 
2212.952 
2213.048 
2213.144 
2213.240 
2213.336 
2213.432 
2213.528 
2213.624 
2213.720 
2213.815 
2213.911 
2214.007 
2214.103 
2214.199 
2214.295 
2214.391 
2214.487 
2214.582 
2214.678 
2214.774 
2214.870 
2214.966 
2215.062 
2215.158 
2215.254 
2215.349 
2215.445 
2215.541 
2215.637 
2215.733 
2215.829 
2215.925 
2216.021 
2216.116 
2216.212 
2216.308 
2216.404 
2216.500 
2216.596 
2216.692 
2216.787 
2216.883 
2216.979 
2217.075 
2217.171 
2217.267 
2217.363 
2217.458 
2217.554 
2217.650 
2217.746 
2217.842 
2217.938 
2218.033 
2218.129 
2218.225 
2218.321 
2218.417 
2218.513 
2218.609 
2218.704 
2218.800 
2218.896 
2218.992 
2219.088 
2219.184 
2219.279 
2219.375 
2219.471 
2219.567 
2219.663 
2219.759 
2219.854 
2219.950 
2220.046 
2220.142 
2220.238 
2220.333 
2220.429 
2220.525 
2220.621 
2220.717 
2220.813 
2220.908 
2221.004 
2221.100 
2221.196 
2221.292 
2221.388 
2221.483 
2221.579 
2221.675 
2221.771 
2221.867 
2221.962 
2222.058 
2222.154 
2222.250 
2222.346 
2222.441 
2222.537 
2222.633 
2222.729 
2222.825 
2222.920 
2223.016 
2223.112 
2223.208 
2223.304 
2223.399 
2223.495 
2223.591 
2223.687 
2223.783 
2223.878 
2223.974 
2224.070 
2224.166 
2224.262 
2224.357 
2224.453 
2224.549 
2224.645 
2224.741 
2224.836 
2224.932 
2225.028 
2225.124 
2225.220 
2225.315 
2225.411 
2225.507 
2225.603 
2225.698 
2225.794 
2225.890 
2225.986 
2226.082 
2226.177 
2226.273 
2226.369 
2226.465 
2226.560 
2226.656 
2226.752 
2226.848 
2226.943 
2227.039 
2227.135 
2227.231 
2227.327 
2227.422 
2227.518 
2227.614 
2227.710 
2227.805 
2227.901 
2227.997 
2228.093 
2228.188 
2228.284 
2228.380 
2228.476 
2228.571 
2228.667 
2228.763 
2228.859 
2228.954 
2229.050 
2229.146 
2229.242 
2229.337 
2229.433 
2229.529 
2229.625 
2229.720 
2229.816 
2229.912 
2230.008 
2230.103 
2230.199 
2230.295 
2230.391 
2230.486 
2230.582 
2230.678 
2230.774 
2230.869 
2230.965 
2231.061 
2231.157 
2231.252 
2231.348 
2231.444 
2231.539 
2231.635 
2231.731 
2231.827 
2231.922 
2232.018 
2232.114 
2232.210 
2232.305 
2232.401 
2232.497 
2232.592 
2232.688 
2232.784 
2232.880 
2232.975 
2233.071 
2233.167 
2233.262 
2233.358 
2233.454 
2233.550 
2233.645 
2233.741 
2233.837 
2233.932 
2234.028 
2234.124 
2234.220 
2234.315 
2234.411 
2234.507 
2234.602 
2234.698 
2234.794 
2234.889 
2234.985 
2235.081 
2235.177 
2235.272 
2235.368 
2235.464 
2235.559 
2235.655 
2235.751 
2235.846 
2235.942 
2236.038 
2236.133 
2236.229 
2236.325 
2236.421 
2236.516 
2236.612 
2236.708 
2236.803 
2236.899 
2236.995 
2237.090 
2237.186 
2237.282 
2237.377 
2237.473 
2237.569 
2237.664 
2237.760 
2237.856 
2237.951 
2238.047 
2238.143 
2238.238 
2238.334 
2238.430 
2238.525 
2238.621 
2238.717 
2238.812 
2238.908 
2239.004 
2239.099 
2239.195 
2239.291 
2239.386 
2239.482 
2239.578 
2239.673 
2239.769 
2239.865 
2239.960 
2240.056 
2240.152 
2240.247 
2240.343 
2240.439 
2240.534 
2240.630 
2240.726 
2240.821 
2240.917 
2241.013 
2241.108 
2241.204 
2241.300 
2241.395 
2241.491 
2241.586 
2241.682 
2241.778 
2241.873 
2241.969 
2242.065 
2242.160 
2242.256 
2242.352 
2242.447 
2242.543 
2242.638 
2242.734 
2242.830 
2242.925 
2243.021 
2243.117 
2243.212 
2243.308 
2243.404 
2243.499 
2243.595 
2243.690 
2243.786 
2243.882 
2243.977 
2244.073 
2244.168 
2244.264 
2244.360 
2244.455 
2244.551 
2244.647 
2244.742 
2244.838 
2244.933 
2245.029 
2245.125 
2245.220 
2245.316 
2245.411 
2245.507 
2245.603 
2245.698 
2245.794 
2245.890 
2245.985 
2246.081 
2246.176 
2246.272 
2246.368 
2246.463 
2246.559 
2246.654 
2246.750 
2246.846 
2246.941 
2247.037 
2247.132 
2247.228 
2247.324 
2247.419 
2247.515 
2247.610 
2247.706 
2247.801 
2247.897 
2247.993 
2248.088 
2248.184 
2248.279 
2248.375 
2248.471 
2248.566 
2248.662 
2248.757 
2248.853 
2248.948 
2249.044 
2249.140 
2249.235 
2249.331 
2249.426 
2249.522 
2249.618 
2249.713 
2249.809 
2249.904 
2250.000 
2250.095 
2250.191 
2250.287 
2250.382 
2250.478 
2250.573 
2250.669 
2250.764 
2250.860 
2250.955 
2251.051 
2251.147 
2251.242 
2251.338 
2251.433 
2251.529 
2251.624 
2251.720 
2251.815 
2251.911 
2252.007 
2252.102 
2252.198 
2252.293 
2252.389 
2252.484 
2252.580 
2252.675 
2252.771 
2252.867 
2252.962 
2253.058 
2253.153 
2253.249 
2253.344 
2253.440 
2253.535 
2253.631 
2253.726 
2253.822 
2253.917 
2254.013 
2254.109 
2254.204 
2254.300 
2254.395 
2254.491 
2254.586 
2254.682 
2254.777 
2254.873 
2254.968 
2255.064 
2255.159 
2255.255 
2255.350 
2255.446 
2255.541 
2255.637 
2255.733 
2255.828 
2255.924 
2256.019 
2256.115 
2256.210 
2256.306 
2256.401 
2256.497 
2256.592 
2256.688 
2256.783 
2256.879 
2256.974 
2257.070 
2257.165 
2257.261 
2257.356 
2257.452 
2257.547 
2257.643 
2257.738 
2257.834 
2257.929 
2258.025 
2258.120 
2258.216 
2258.311 
2258.407 
2258.502 
2258.598 
2258.693 
2258.789 
2258.884 
2258.980 
2259.075 
2259.171 
2259.266 
2259.362 
2259.457 
2259.553 
2259.648 
2259.744 
2259.839 
2259.935 
2260.030 
2260.126 
2260.221 
2260.317 
2260.412 
2260.508 
2260.603 
2260.698 
2260.794 
2260.889 
2260.985 
2261.080 
2261.176 
2261.271 
2261.367 
2261.462 
2261.558 
2261.653 
2261.749 
2261.844 
2261.940 
2262.035 
2262.131 
2262.226 
2262.321 
2262.417 
2262.512 
2262.608 
2262.703 
2262.799 
2262.894 
2262.990 
2263.085 
2263.181 
2263.276 
2263.372 
2263.467 
2263.562 
2263.658 
2263.753 
2263.849 
2263.944 
2264.040 
2264.135 
2264.231 
2264.326 
2264.422 
2264.517 
2264.612 
2264.708 
2264.803 
2264.899 
2264.994 
2265.090 
2265.185 
2265.280 
2265.376 
2265.471 
2265.567 
2265.662 
2265.758 
2265.853 
2265.949 
2266.044 
2266.139 
2266.235 
2266.330 
2266.426 
2266.521 
2266.617 
2266.712 
2266.807 
2266.903 
2266.998 
2267.094 
2267.189 
2267.285 
2267.380 
2267.475 
2267.571 
2267.666 
2267.762 
2267.857 
2267.952 
2268.048 
2268.143 
2268.239 
2268.334 
2268.430 
2268.525 
2268.620 
2268.716 
2268.811 
2268.907 
2269.002 
2269.097 
2269.193 
2269.288 
2269.384 
2269.479 
2269.574 
2269.670 
2269.765 
2269.861 
2269.956 
2270.051 
2270.147 
2270.242 
2270.338 
2270.433 
2270.528 
2270.624 
2270.719 
2270.815 
2270.910 
2271.005 
2271.101 
2271.196 
2271.291 
2271.387 
2271.482 
2271.578 
2271.673 
2271.768 
2271.864 
2271.959 
2272.055 
2272.150 
2272.245 
2272.341 
2272.436 
2272.531 
2272.627 
2272.722 
2272.818 
2272.913 
2273.008 
2273.104 
2273.199 
2273.294 
2273.390 
2273.485 
2273.581 
2273.676 
2273.771 
2273.867 
2273.962 
2274.057 
2274.153 
2274.248 
2274.343 
2274.439 
2274.534 
2274.629 
2274.725 
2274.820 
2274.916 
2275.011 
2275.106 
2275.202 
2275.297 
2275.392 
2275.488 
2275.583 
2275.678 
2275.774 
2275.869 
2275.964 
2276.060 
2276.155 
2276.250 
2276.346 
2276.441 
2276.536 
2276.632 
2276.727 
2276.822 
2276.918 
2277.013 
2277.109 
2277.204 
2277.299 
2277.395 
2277.490 
2277.585 
2277.681 
2277.776 
2277.871 
2277.967 
2278.062 
2278.157 
2278.252 
2278.348 
2278.443 
2278.538 
2278.634 
2278.729 
2278.824 
2278.920 
2279.015 
2279.110 
2279.206 
2279.301 
2279.396 
2279.492 
2279.587 
2279.682 
2279.778 
2279.873 
2279.968 
2280.064 
2280.159 
2280.254 
2280.349 
2280.445 
2280.540 
2280.635 
2280.731 
2280.826 
2280.921 
2281.017 
2281.112 
2281.207 
2281.303 
2281.398 
2281.493 
2281.588 
2281.684 
2281.779 
2281.874 
2281.970 
2282.065 
2282.160 
2282.255 
2282.351 
2282.446 
2282.541 
2282.637 
2282.732 
2282.827 
2282.922 
2283.018 
2283.113 
2283.208 
2283.304 
2283.399 
2283.494 
2283.589 
2283.685 
2283.780 
2283.875 
2283.971 
2284.066 
2284.161 
2284.256 
2284.352 
2284.447 
2284.542 
2284.638 
2284.733 
2284.828 
2284.923 
2285.019 
2285.114 
2285.209 
2285.304 
2285.400 
2285.495 
2285.590 
2285.685 
2285.781 
2285.876 
2285.971 
2286.066 
2286.162 
2286.257 
2286.352 
2286.448 
2286.543 
2286.638 
2286.733 
2286.829 
2286.924 
2287.019 
2287.114 
2287.210 
2287.305 
2287.400 
2287.495 
2287.591 
2287.686 
2287.781 
2287.876 
2287.971 
2288.067 
2288.162 
2288.257 
2288.352 
2288.448 
2288.543 
2288.638 
2288.733 
2288.829 
2288.924 
2289.019 
2289.114 
2289.210 
2289.305 
2289.400 
2289.495 
2289.590 
2289.686 
2289.781 
2289.876 
2289.971 
2290.067 
2290.162 
2290.257 
2290.352 
2290.448 
2290.543 
2290.638 
2290.733 
2290.828 
2290.924 
2291.019 
2291.114 
2291.209 
2291.304 
2291.400 
2291.495 
2291.590 
2291.685 
2291.781 
2291.876 
2291.971 
2292.066 
2292.161 
2292.257 
2292.352 
2292.447 
2292.542 
2292.637 
2292.733 
2292.828 
2292.923 
2293.018 
2293.113 
2293.209 
2293.304 
2293.399 
2293.494 
2293.589 
2293.685 
2293.780 
2293.875 
2293.970 
2294.065 
2294.161 
2294.256 
2294.351 
2294.446 
2294.541 
2294.636 
2294.732 
2294.827 
2294.922 
2295.017 
2295.112 
2295.208 
2295.303 
2295.398 
2295.493 
2295.588 
2295.683 
2295.779 
2295.874 
2295.969 
2296.064 
2296.159 
2296.254 
2296.350 
2296.445 
2296.540 
2296.635 
2296.730 
2296.825 
2296.921 
2297.016 
2297.111 
2297.206 
2297.301 
2297.396 
2297.492 
2297.587 
2297.682 
2297.777 
2297.872 
2297.967 
2298.063 
2298.158 
2298.253 
2298.348 
2298.443 
2298.538 
2298.633 
2298.729 
2298.824 
2298.919 
2299.014 
2299.109 
2299.204 
2299.300 
2299.395 
2299.490 
2299.585 
2299.680 
2299.775 
2299.870 
2299.965 
2300.061 
2300.156 
2300.251 
2300.346 
2300.441 
2300.536 
2300.631 
2300.727 
2300.822 
2300.917 
2301.012 
2301.107 
2301.202 
2301.297 
2301.392 
2301.488 
2301.583 
2301.678 
2301.773 
2301.868 
2301.963 
2302.058 
2302.153 
2302.249 
2302.344 
2302.439 
2302.534 
2302.629 
2302.724 
2302.819 
2302.914 
2303.010 
2303.105 
2303.200 
2303.295 
2303.390 
2303.485 
2303.580 
2303.675 
2303.770 
2303.865 
2303.961 
2304.056 
2304.151 
2304.246 
2304.341 
2304.436 
2304.531 
2304.626 
2304.721 
2304.816 
2304.912 
2305.007 
2305.102 
2305.197 
2305.292 
2305.387 
2305.482 
2305.577 
2305.672 
2305.767 
2305.863 
2305.958 
2306.053 
2306.148 
2306.243 
2306.338 
2306.433 
2306.528 
2306.623 
2306.718 
2306.813 
2306.908 
2307.004 
2307.099 
2307.194 
2307.289 
2307.384 
2307.479 
2307.574 
2307.669 
2307.764 
2307.859 
2307.954 
2308.049 
2308.144 
2308.239 
2308.335 
2308.430 
2308.525 
2308.620 
2308.715 
2308.810 
2308.905 
2309.000 
2309.095 
2309.190 
2309.285 
2309.380 
2309.475 
2309.570 
2309.665 
2309.760 
2309.855 
2309.951 
2310.046 
2310.141 
2310.236 
2310.331 
2310.426 
2310.521 
2310.616 
2310.711 
2310.806 
2310.901 
2310.996 
2311.091 
2311.186 
2311.281 
2311.376 
2311.471 
2311.566 
2311.661 
2311.756 
2311.851 
2311.946 
2312.041 
2312.136 
2312.232 
2312.327 
2312.422 
2312.517 
2312.612 
2312.707 
2312.802 
2312.897 
2312.992 
2313.087 
2313.182 
2313.277 
2313.372 
2313.467 
2313.562 
2313.657 
2313.752 
2313.847 
2313.942 
2314.037 
2314.132 
2314.227 
2314.322 
2314.417 
2314.512 
2314.607 
2314.702 
2314.797 
2314.892 
2314.987 
2315.082 
2315.177 
2315.272 
2315.367 
2315.462 
2315.557 
2315.652 
2315.747 
2315.842 
2315.937 
2316.032 
2316.127 
2316.222 
2316.317 
2316.412 
2316.507 
2316.602 
2316.697 
2316.792 
2316.887 
2316.982 
2317.077 
2317.172 
2317.267 
2317.362 
2317.457 
2317.552 
2317.647 
2317.742 
2317.837 
2317.932 
2318.027 
2318.122 
2318.217 
2318.312 
2318.407 
2318.502 
2318.597 
2318.692 
2318.787 
2318.882 
2318.977 
2319.072 
2319.167 
2319.262 
2319.357 
2319.452 
2319.547 
2319.642 
2319.737 
2319.831 
2319.926 
2320.021 
2320.116 
2320.211 
2320.306 
2320.401 
2320.496 
2320.591 
2320.686 
2320.781 
2320.876 
2320.971 
2321.066 
2321.161 
2321.256 
2321.351 
2321.446 
2321.541 
2321.636 
2321.731 
2321.826 
2321.921 
2322.015 
2322.110 
2322.205 
2322.300 
2322.395 
2322.490 
2322.585 
2322.680 
2322.775 
2322.870 
2322.965 
2323.060 
2323.155 
2323.250 
2323.345 
2323.440 
2323.535 
2323.629 
2323.724 
2323.819 
2323.914 
2324.009 
2324.104 
2324.199 
2324.294 
2324.389 
2324.484 
2324.579 
2324.674 
2324.769 
2324.864 
2324.958 
2325.053 
2325.148 
2325.243 
2325.338 
2325.433 
2325.528 
2325.623 
2325.718 
2325.813 
2325.908 
2326.003 
2326.097 
2326.192 
2326.287 
2326.382 
2326.477 
2326.572 
2326.667 
2326.762 
2326.857 
2326.952 
2327.047 
2327.141 
2327.236 
2327.331 
2327.426 
2327.521 
2327.616 
2327.711 
2327.806 
2327.901 
2327.996 
2328.090 
2328.185 
2328.280 
2328.375 
2328.470 
2328.565 
2328.660 
2328.755 
2328.850 
2328.944 
2329.039 
2329.134 
2329.229 
2329.324 
2329.419 
2329.514 
2329.609 
2329.704 
2329.798 
2329.893 
2329.988 
2330.083 
2330.178 
2330.273 
2330.368 
2330.463 
2330.557 
2330.652 
2330.747 
2330.842 
2330.937 
2331.032 
2331.127 
2331.222 
2331.316 
2331.411 
2331.506 
2331.601 
2331.696 
2331.791 
2331.886 
2331.980 
2332.075 
2332.170 
2332.265 
2332.360 
2332.455 
2332.550 
2332.644 
2332.739 
2332.834 
2332.929 
2333.024 
2333.119 
2333.214 
2333.308 
2333.403 
2333.498 
2333.593 
2333.688 
2333.783 
2333.878 
2333.972 
2334.067 
2334.162 
2334.257 
2334.352 
2334.447 
2334.541 
2334.636 
2334.731 
2334.826 
2334.921 
2335.016 
2335.110 
2335.205 
2335.300 
2335.395 
2335.490 
2335.585 
2335.679 
2335.774 
2335.869 
2335.964 
2336.059 
2336.154 
2336.248 
2336.343 
2336.438 
2336.533 
2336.628 
2336.722 
2336.817 
2336.912 
2337.007 
2337.102 
2337.197 
2337.291 
2337.386 
2337.481 
2337.576 
2337.671 
2337.765 
2337.860 
2337.955 
2338.050 
2338.145 
2338.239 
2338.334 
2338.429 
2338.524 
2338.619 
2338.714 
2338.808 
2338.903 
2338.998 
2339.093 
2339.188 
2339.282 
2339.377 
2339.472 
2339.567 
2339.661 
2339.756 
2339.851 
2339.946 
2340.041 
2340.135 
2340.230 
2340.325 
2340.420 
2340.515 
2340.609 
2340.704 
2340.799 
2340.894 
2340.989 
2341.083 
2341.178 
2341.273 
2341.368 
2341.462 
2341.557 
2341.652 
2341.747 
2341.842 
2341.936 
2342.031 
2342.126 
2342.221 
2342.315 
2342.410 
2342.505 
2342.600 
2342.694 
2342.789 
2342.884 
2342.979 
2343.074 
2343.168 
2343.263 
2343.358 
2343.453 
2343.547 
2343.642 
2343.737 
2343.832 
2343.926 
2344.021 
2344.116 
2344.211 
2344.305 
2344.400 
2344.495 
2344.590 
2344.684 
2344.779 
2344.874 
2344.969 
2345.063 
2345.158 
2345.253 
2345.348 
2345.442 
2345.537 
2345.632 
2345.727 
2345.821 
2345.916 
2346.011 
2346.106 
2346.200 
2346.295 
2346.390 
2346.485 
2346.579 
2346.674 
2346.769 
2346.863 
2346.958 
2347.053 
2347.148 
2347.242 
2347.337 
2347.432 
2347.527 
2347.621 
2347.716 
2347.811 
2347.905 
2348.000 
2348.095 
2348.190 
2348.284 
2348.379 
2348.474 
2348.569 
2348.663 
2348.758 
2348.853 
2348.947 
2349.042 
2349.137 
2349.232 
2349.326 
2349.421 
2349.516 
2349.610 
2349.705 
2349.800 
2349.894 
2349.989 
2350.084 
2350.179 
2350.273 
2350.368 
2350.463 
2350.557 
2350.652 
2350.747 
2350.842 
2350.936 
2351.031 
2351.126 
2351.220 
2351.315 
2351.410 
2351.504 
2351.599 
2351.694 
2351.788 
2351.883 
2351.978 
2352.072 
2352.167 
2352.262 
2352.357 
2352.451 
2352.546 
2352.641 
2352.735 
2352.830 
2352.925 
2353.019 
2353.114 
2353.209 
2353.303 
2353.398 
2353.493 
2353.587 
2353.682 
2353.777 
2353.871 
2353.966 
2354.061 
2354.155 
2354.250 
2354.345 
2354.439 
2354.534 
2354.629 
2354.723 
2354.818 
2354.913 
2355.007 
2355.102 
2355.197 
2355.291 
2355.386 
2355.481 
2355.575 
2355.670 
2355.765 
2355.859 
2355.954 
2356.049 
2356.143 
2356.238 
2356.333 
2356.427 
2356.522 
2356.617 
2356.711 
2356.806 
2356.900 
2356.995 
2357.090 
2357.184 
2357.279 
2357.374 
2357.468 
2357.563 
2357.658 
2357.752 
2357.847 
2357.941 
2358.036 
2358.131 
2358.225 
2358.320 
2358.415 
2358.509 
2358.604 
2358.699 
2358.793 
2358.888 
2358.982 
2359.077 
2359.172 
2359.266 
2359.361 
2359.456 
2359.550 
2359.645 
2359.739 
2359.834 
2359.929 
2360.023 
2360.118 
2360.212 
2360.307 
2360.402 
2360.496 
2360.591 
2360.686 
2360.780 
2360.875 
2360.969 
2361.064 
2361.159 
2361.253 
2361.348 
2361.442 
2361.537 
2361.632 
2361.726 
2361.821 
2361.915 
2362.010 
2362.105 
2362.199 
2362.294 
2362.388 
2362.483 
2362.578 
2362.672 
2362.767 
2362.861 
2362.956 
2363.051 
2363.145 
2363.240 
2363.334 
2363.429 
2363.524 
2363.618 
2363.713 
2363.807 
2363.902 
2363.996 
2364.091 
2364.186 
2364.280 
2364.375 
2364.469 
2364.564 
2364.659 
2364.753 
2364.848 
2364.942 
2365.037 
2365.131 
2365.226 
2365.321 
2365.415 
2365.510 
2365.604 
2365.699 
2365.793 
2365.888 
2365.983 
2366.077 
2366.172 
2366.266 
2366.361 
2366.455 
2366.550 
2366.644 
2366.739 
2366.834 
2366.928 
2367.023 
2367.117 
2367.212 
2367.306 
2367.401 
2367.495 
2367.590 
2367.685 
2367.779 
2367.874 
2367.968 
2368.063 
2368.157 
2368.252 
2368.346 
2368.441 
2368.535 
2368.630 
2368.725 
2368.819 
2368.914 
2369.008 
2369.103 
2369.197 
2369.292 
2369.386 
2369.481 
2369.575 
2369.670 
2369.764 
2369.859 
2369.954 
2370.048 
2370.143 
2370.237 
2370.332 
2370.426 
2370.521 
2370.615 
2370.710 
2370.804 
2370.899 
2370.993 
2371.088 
2371.182 
2371.277 
2371.371 
2371.466 
2371.560 
2371.655 
2371.749 
2371.844 
2371.939 
2372.033 
2372.128 
2372.222 
2372.317 
2372.411 
2372.506 
2372.600 
2372.695 
2372.789 
2372.884 
2372.978 
2373.073 
2373.167 
2373.262 
2373.356 
2373.451 
2373.545 
2373.640 
2373.734 
2373.829 
2373.923 
2374.018 
2374.112 
2374.207 
2374.301 
2374.396 
2374.490 
2374.585 
2374.679 
2374.774 
2374.868 
2374.963 
2375.057 
2375.151 
2375.246 
2375.340 
2375.435 
2375.529 
2375.624 
2375.718 
2375.813 
2375.907 
2376.002 
2376.096 
2376.191 
2376.285 
2376.380 
2376.474 
2376.569 
2376.663 
2376.758 
2376.852 
2376.947 
2377.041 
2377.136 
2377.230 
2377.324 
2377.419 
2377.513 
2377.608 
2377.702 
2377.797 
2377.891 
2377.986 
2378.080 
2378.175 
2378.269 
2378.364 
2378.458 
2378.552 
2378.647 
2378.741 
2378.836 
2378.930 
2379.025 
2379.119 
2379.214 
2379.308 
2379.403 
2379.497 
2379.591 
2379.686 
2379.780 
2379.875 
2379.969 
2380.064 
2380.158 
2380.253 
2380.347 
2380.441 
2380.536 
2380.630 
2380.725 
2380.819 
2380.914 
2381.008 
2381.102 
2381.197 
2381.291 
2381.386 
2381.480 
2381.575 
2381.669 
2381.763 
2381.858 
2381.952 
2382.047 
2382.141 
2382.236 
2382.330 
2382.424 
2382.519 
2382.613 
2382.708 
2382.802 
2382.897 
2382.991 
2383.085 
2383.180 
2383.274 
2383.369 
2383.463 
2383.557 
2383.652 
2383.746 
2383.841 
2383.935 
2384.030 
2384.124 
2384.218 
2384.313 
2384.407 
2384.502 
2384.596 
2384.690 
2384.785 
2384.879 
2384.974 
2385.068 
2385.162 
2385.257 
2385.351 
2385.446 
2385.540 
2385.634 
2385.729 
2385.823 
2385.917 
2386.012 
2386.106 
2386.201 
2386.295 
2386.389 
2386.484 
2386.578 
2386.673 
2386.767 
2386.861 
2386.956 
2387.050 
2387.145 
2387.239 
2387.333 
2387.428 
2387.522 
2387.616 
2387.711 
2387.805 
2387.900 
2387.994 
2388.088 
2388.183 
2388.277 
2388.371 
2388.466 
2388.560 
2388.655 
2388.749 
2388.843 
2388.938 
2389.032 
2389.126 
2389.221 
2389.315 
2389.409 
2389.504 
2389.598 
2389.693 
2389.787 
2389.881 
