# Wavelength table for hrs,g200m
1600.000 
1600.081 
1600.162 
1600.243 
1600.324 
1600.405 
1600.486 
1600.567 
1600.648 
1600.729 
1600.810 
1600.891 
1600.972 
1601.053 
1601.134 
1601.215 
1601.296 
1601.377 
1601.458 
1601.539 
1601.620 
1601.701 
1601.782 
1601.863 
1601.944 
1602.025 
1602.106 
1602.187 
1602.268 
1602.349 
1602.430 
1602.511 
1602.592 
1602.673 
1602.754 
1602.835 
1602.916 
1602.997 
1603.078 
1603.159 
1603.240 
1603.321 
1603.401 
1603.482 
1603.563 
1603.644 
1603.725 
1603.806 
1603.887 
1603.968 
1604.049 
1604.130 
1604.211 
1604.292 
1604.373 
1604.454 
1604.535 
1604.616 
1604.697 
1604.778 
1604.859 
1604.940 
1605.021 
1605.102 
1605.183 
1605.264 
1605.345 
1605.426 
1605.507 
1605.588 
1605.669 
1605.750 
1605.830 
1605.911 
1605.992 
1606.073 
1606.154 
1606.235 
1606.316 
1606.397 
1606.478 
1606.559 
1606.640 
1606.721 
1606.802 
1606.883 
1606.964 
1607.045 
1607.126 
1607.207 
1607.288 
1607.369 
1607.450 
1607.530 
1607.611 
1607.692 
1607.773 
1607.854 
1607.935 
1608.016 
1608.097 
1608.178 
1608.259 
1608.340 
1608.421 
1608.502 
1608.583 
1608.664 
1608.745 
1608.826 
1608.906 
1608.987 
1609.068 
1609.149 
1609.230 
1609.311 
1609.392 
1609.473 
1609.554 
1609.635 
1609.716 
1609.797 
1609.878 
1609.959 
1610.040 
1610.120 
1610.201 
1610.282 
1610.363 
1610.444 
1610.525 
1610.606 
1610.687 
1610.768 
1610.849 
1610.930 
1611.011 
1611.092 
1611.172 
1611.253 
1611.334 
1611.415 
1611.496 
1611.577 
1611.658 
1611.739 
1611.820 
1611.901 
1611.982 
1612.063 
1612.143 
1612.224 
1612.305 
1612.386 
1612.467 
1612.548 
1612.629 
1612.710 
1612.791 
1612.872 
1612.953 
1613.033 
1613.114 
1613.195 
1613.276 
1613.357 
1613.438 
1613.519 
1613.600 
1613.681 
1613.762 
1613.842 
1613.923 
1614.004 
1614.085 
1614.166 
1614.247 
1614.328 
1614.409 
1614.490 
1614.571 
1614.651 
1614.732 
1614.813 
1614.894 
1614.975 
1615.056 
1615.137 
1615.218 
1615.299 
1615.379 
1615.460 
1615.541 
1615.622 
1615.703 
1615.784 
1615.865 
1615.946 
1616.027 
1616.107 
1616.188 
1616.269 
1616.350 
1616.431 
1616.512 
1616.593 
1616.674 
1616.754 
1616.835 
1616.916 
1616.997 
1617.078 
1617.159 
1617.240 
1617.321 
1617.401 
1617.482 
1617.563 
1617.644 
1617.725 
1617.806 
1617.887 
1617.968 
1618.048 
1618.129 
1618.210 
1618.291 
1618.372 
1618.453 
1618.534 
1618.615 
1618.695 
1618.776 
1618.857 
1618.938 
1619.019 
1619.100 
1619.181 
1619.261 
1619.342 
1619.423 
1619.504 
1619.585 
1619.666 
1619.747 
1619.827 
1619.908 
1619.989 
1620.070 
1620.151 
1620.232 
1620.313 
1620.393 
1620.474 
1620.555 
1620.636 
1620.717 
1620.798 
1620.879 
1620.959 
1621.040 
1621.121 
1621.202 
1621.283 
1621.364 
1621.444 
1621.525 
1621.606 
1621.687 
1621.768 
1621.849 
1621.930 
1622.010 
1622.091 
1622.172 
1622.253 
1622.334 
1622.415 
1622.495 
1622.576 
1622.657 
1622.738 
1622.819 
1622.900 
1622.980 
1623.061 
1623.142 
1623.223 
1623.304 
1623.385 
1623.465 
1623.546 
1623.627 
1623.708 
1623.789 
1623.870 
1623.950 
1624.031 
1624.112 
1624.193 
1624.274 
1624.354 
1624.435 
1624.516 
1624.597 
1624.678 
1624.759 
1624.839 
1624.920 
1625.001 
1625.082 
1625.163 
1625.244 
1625.324 
1625.405 
1625.486 
1625.567 
1625.648 
1625.728 
1625.809 
1625.890 
1625.971 
1626.052 
1626.132 
1626.213 
1626.294 
1626.375 
1626.456 
1626.537 
1626.617 
1626.698 
1626.779 
1626.860 
1626.941 
1627.021 
1627.102 
1627.183 
1627.264 
1627.345 
1627.425 
1627.506 
1627.587 
1627.668 
1627.749 
1627.829 
1627.910 
1627.991 
1628.072 
1628.153 
1628.233 
1628.314 
1628.395 
1628.476 
1628.557 
1628.637 
1628.718 
1628.799 
1628.880 
1628.961 
1629.041 
1629.122 
1629.203 
1629.284 
1629.364 
1629.445 
1629.526 
1629.607 
1629.688 
1629.768 
1629.849 
1629.930 
1630.011 
1630.092 
1630.172 
1630.253 
1630.334 
1630.415 
1630.495 
1630.576 
1630.657 
1630.738 
1630.819 
1630.899 
1630.980 
1631.061 
1631.142 
1631.222 
1631.303 
1631.384 
1631.465 
1631.546 
1631.626 
1631.707 
1631.788 
1631.869 
1631.949 
1632.030 
1632.111 
1632.192 
1632.272 
1632.353 
1632.434 
1632.515 
1632.595 
1632.676 
1632.757 
1632.838 
1632.919 
1632.999 
1633.080 
1633.161 
1633.242 
1633.322 
1633.403 
1633.484 
1633.565 
1633.645 
1633.726 
1633.807 
1633.888 
1633.968 
1634.049 
1634.130 
1634.211 
1634.291 
1634.372 
1634.453 
1634.534 
1634.614 
1634.695 
1634.776 
1634.857 
1634.937 
1635.018 
1635.099 
1635.180 
1635.260 
1635.341 
1635.422 
1635.503 
1635.583 
1635.664 
1635.745 
1635.826 
1635.906 
1635.987 
1636.068 
1636.149 
1636.229 
1636.310 
1636.391 
1636.472 
1636.552 
1636.633 
1636.714 
1636.794 
1636.875 
1636.956 
1637.037 
1637.117 
1637.198 
1637.279 
1637.360 
1637.440 
1637.521 
1637.602 
1637.682 
1637.763 
1637.844 
1637.925 
1638.005 
1638.086 
1638.167 
1638.248 
1638.328 
1638.409 
1638.490 
1638.570 
1638.651 
1638.732 
1638.813 
1638.893 
1638.974 
1639.055 
1639.135 
1639.216 
1639.297 
1639.378 
1639.458 
1639.539 
1639.620 
1639.700 
1639.781 
1639.862 
1639.943 
1640.023 
1640.104 
1640.185 
1640.265 
1640.346 
1640.427 
1640.508 
1640.588 
1640.669 
1640.750 
1640.830 
1640.911 
1640.992 
1641.073 
1641.153 
1641.234 
1641.315 
1641.395 
1641.476 
1641.557 
1641.637 
1641.718 
1641.799 
1641.880 
1641.960 
1642.041 
1642.122 
1642.202 
1642.283 
1642.364 
1642.444 
1642.525 
1642.606 
1642.686 
1642.767 
1642.848 
1642.929 
1643.009 
1643.090 
1643.171 
1643.251 
1643.332 
1643.413 
1643.493 
1643.574 
1643.655 
1643.735 
1643.816 
1643.897 
1643.977 
1644.058 
1644.139 
1644.219 
1644.300 
1644.381 
1644.462 
1644.542 
1644.623 
1644.704 
1644.784 
1644.865 
1644.946 
1645.026 
1645.107 
1645.188 
1645.268 
1645.349 
1645.430 
1645.510 
1645.591 
1645.672 
1645.752 
1645.833 
1645.914 
1645.994 
1646.075 
1646.156 
1646.236 
1646.317 
1646.398 
1646.478 
1646.559 
1646.640 
1646.720 
1646.801 
1646.882 
1646.962 
1647.043 
1647.124 
1647.204 
1647.285 
1647.366 
1647.446 
1647.527 
1647.608 
1647.688 
1647.769 
1647.849 
1647.930 
1648.011 
1648.091 
1648.172 
1648.253 
1648.333 
1648.414 
1648.495 
1648.575 
1648.656 
1648.737 
1648.817 
1648.898 
1648.979 
1649.059 
1649.140 
1649.221 
1649.301 
1649.382 
1649.462 
1649.543 
1649.624 
1649.704 
1649.785 
1649.866 
1649.946 
1650.027 
1650.108 
1650.188 
1650.269 
1650.349 
1650.430 
1650.511 
1650.591 
1650.672 
1650.753 
1650.833 
1650.914 
1650.995 
1651.075 
1651.156 
1651.236 
1651.317 
1651.398 
1651.478 
1651.559 
1651.640 
1651.720 
1651.801 
1651.881 
1651.962 
1652.043 
1652.123 
1652.204 
1652.285 
1652.365 
1652.446 
1652.526 
1652.607 
1652.688 
1652.768 
1652.849 
1652.930 
1653.010 
1653.091 
1653.171 
1653.252 
1653.333 
1653.413 
1653.494 
1653.574 
1653.655 
1653.736 
1653.816 
1653.897 
1653.977 
1654.058 
1654.139 
1654.219 
1654.300 
1654.381 
1654.461 
1654.542 
1654.622 
1654.703 
1654.784 
1654.864 
1654.945 
1655.025 
1655.106 
1655.187 
1655.267 
1655.348 
1655.428 
1655.509 
1655.590 
1655.670 
1655.751 
1655.831 
1655.912 
1655.993 
1656.073 
1656.154 
1656.234 
1656.315 
1656.395 
1656.476 
1656.557 
1656.637 
1656.718 
1656.798 
1656.879 
1656.960 
1657.040 
1657.121 
1657.201 
1657.282 
1657.363 
1657.443 
1657.524 
1657.604 
1657.685 
1657.765 
1657.846 
1657.927 
1658.007 
1658.088 
1658.168 
1658.249 
1658.330 
1658.410 
1658.491 
1658.571 
1658.652 
1658.732 
1658.813 
1658.894 
1658.974 
1659.055 
1659.135 
1659.216 
1659.296 
1659.377 
1659.458 
1659.538 
1659.619 
1659.699 
1659.780 
1659.860 
1659.941 
1660.022 
1660.102 
1660.183 
1660.263 
1660.344 
1660.424 
1660.505 
1660.585 
1660.666 
1660.747 
1660.827 
1660.908 
1660.988 
1661.069 
1661.149 
1661.230 
1661.310 
1661.391 
1661.472 
1661.552 
1661.633 
1661.713 
1661.794 
1661.874 
1661.955 
1662.035 
1662.116 
1662.197 
1662.277 
1662.358 
1662.438 
1662.519 
1662.599 
1662.680 
1662.760 
1662.841 
1662.921 
1663.002 
1663.083 
1663.163 
1663.244 
1663.324 
1663.405 
1663.485 
1663.566 
1663.646 
1663.727 
1663.807 
1663.888 
1663.969 
1664.049 
1664.130 
1664.210 
1664.291 
1664.371 
1664.452 
1664.532 
1664.613 
1664.693 
1664.774 
1664.854 
1664.935 
1665.015 
1665.096 
1665.177 
1665.257 
1665.338 
1665.418 
1665.499 
1665.579 
1665.660 
1665.740 
1665.821 
1665.901 
1665.982 
1666.062 
1666.143 
1666.223 
1666.304 
1666.384 
1666.465 
1666.545 
1666.626 
1666.706 
1666.787 
1666.867 
1666.948 
1667.028 
1667.109 
1667.190 
1667.270 
1667.351 
1667.431 
1667.512 
1667.592 
1667.673 
1667.753 
1667.834 
1667.914 
1667.995 
1668.075 
1668.156 
1668.236 
1668.317 
1668.397 
1668.478 
1668.558 
1668.639 
1668.719 
1668.800 
1668.880 
1668.961 
1669.041 
1669.122 
1669.202 
1669.283 
1669.363 
1669.444 
1669.524 
1669.605 
1669.685 
1669.766 
1669.846 
1669.927 
1670.007 
1670.088 
1670.168 
1670.249 
1670.329 
1670.410 
1670.490 
1670.571 
1670.651 
1670.732 
1670.812 
1670.893 
1670.973 
1671.053 
1671.134 
1671.214 
1671.295 
1671.375 
1671.456 
1671.536 
1671.617 
1671.697 
1671.778 
1671.858 
1671.939 
1672.019 
1672.100 
1672.180 
1672.261 
1672.341 
1672.422 
1672.502 
1672.583 
1672.663 
1672.744 
1672.824 
1672.904 
1672.985 
1673.065 
1673.146 
1673.226 
1673.307 
1673.387 
1673.468 
1673.548 
1673.629 
1673.709 
1673.790 
1673.870 
1673.951 
1674.031 
1674.112 
1674.192 
1674.272 
1674.353 
1674.433 
1674.514 
1674.594 
1674.675 
1674.755 
1674.836 
1674.916 
1674.997 
1675.077 
1675.157 
1675.238 
1675.318 
1675.399 
1675.479 
1675.560 
1675.640 
1675.721 
1675.801 
1675.882 
1675.962 
1676.042 
1676.123 
1676.203 
1676.284 
1676.364 
1676.445 
1676.525 
1676.606 
1676.686 
1676.766 
1676.847 
1676.927 
1677.008 
1677.088 
1677.169 
1677.249 
1677.330 
1677.410 
1677.490 
1677.571 
1677.651 
1677.732 
1677.812 
1677.893 
1677.973 
1678.053 
1678.134 
1678.214 
1678.295 
1678.375 
1678.456 
1678.536 
1678.617 
1678.697 
1678.777 
1678.858 
1678.938 
1679.019 
1679.099 
1679.180 
1679.260 
1679.340 
1679.421 
1679.501 
1679.582 
1679.662 
1679.742 
1679.823 
1679.903 
1679.984 
1680.064 
1680.145 
1680.225 
1680.305 
1680.386 
1680.466 
1680.547 
1680.627 
1680.707 
1680.788 
1680.868 
1680.949 
1681.029 
1681.110 
1681.190 
1681.270 
1681.351 
1681.431 
1681.512 
1681.592 
1681.672 
1681.753 
1681.833 
1681.914 
1681.994 
1682.074 
1682.155 
1682.235 
1682.316 
1682.396 
1682.476 
1682.557 
1682.637 
1682.718 
1682.798 
1682.878 
1682.959 
1683.039 
1683.120 
1683.200 
1683.280 
1683.361 
1683.441 
1683.522 
1683.602 
1683.682 
1683.763 
1683.843 
1683.924 
1684.004 
1684.084 
1684.165 
1684.245 
1684.326 
1684.406 
1684.486 
1684.567 
1684.647 
1684.728 
1684.808 
1684.888 
1684.969 
1685.049 
1685.129 
1685.210 
1685.290 
1685.371 
1685.451 
1685.531 
1685.612 
1685.692 
1685.772 
1685.853 
1685.933 
1686.014 
1686.094 
1686.174 
1686.255 
1686.335 
1686.415 
1686.496 
1686.576 
1686.657 
1686.737 
1686.817 
1686.898 
1686.978 
1687.058 
1687.139 
1687.219 
1687.300 
1687.380 
1687.460 
1687.541 
1687.621 
1687.701 
1687.782 
1687.862 
1687.942 
1688.023 
1688.103 
1688.184 
1688.264 
1688.344 
1688.425 
1688.505 
1688.585 
1688.666 
1688.746 
1688.826 
1688.907 
1688.987 
1689.067 
1689.148 
1689.228 
1689.309 
1689.389 
1689.469 
1689.550 
1689.630 
1689.710 
1689.791 
1689.871 
1689.951 
1690.032 
1690.112 
1690.192 
1690.273 
1690.353 
1690.433 
1690.514 
1690.594 
1690.674 
1690.755 
1690.835 
1690.915 
1690.996 
1691.076 
1691.157 
1691.237 
1691.317 
1691.398 
1691.478 
1691.558 
1691.639 
1691.719 
1691.799 
1691.880 
1691.960 
1692.040 
1692.121 
1692.201 
1692.281 
1692.362 
1692.442 
1692.522 
1692.603 
1692.683 
1692.763 
1692.843 
1692.924 
1693.004 
1693.084 
1693.165 
1693.245 
1693.325 
1693.406 
1693.486 
1693.566 
1693.647 
1693.727 
1693.807 
1693.888 
1693.968 
1694.048 
1694.129 
1694.209 
1694.289 
1694.370 
1694.450 
1694.530 
1694.611 
1694.691 
1694.771 
1694.851 
1694.932 
1695.012 
1695.092 
1695.173 
1695.253 
1695.333 
1695.414 
1695.494 
1695.574 
1695.655 
1695.735 
1695.815 
1695.895 
1695.976 
1696.056 
1696.136 
1696.217 
1696.297 
1696.377 
1696.458 
1696.538 
1696.618 
1696.699 
1696.779 
1696.859 
1696.939 
1697.020 
1697.100 
1697.180 
1697.261 
1697.341 
1697.421 
1697.501 
1697.582 
1697.662 
1697.742 
1697.823 
1697.903 
1697.983 
1698.063 
1698.144 
1698.224 
1698.304 
1698.385 
1698.465 
1698.545 
1698.625 
1698.706 
1698.786 
1698.866 
1698.947 
1699.027 
1699.107 
1699.187 
1699.268 
1699.348 
1699.428 
1699.509 
1699.589 
1699.669 
1699.749 
1699.830 
1699.910 
1699.990 
1700.071 
1700.151 
1700.231 
1700.311 
1700.392 
1700.472 
1700.552 
1700.632 
1700.713 
1700.793 
1700.873 
1700.954 
1701.034 
1701.114 
1701.194 
1701.275 
1701.355 
1701.435 
1701.515 
1701.596 
1701.676 
1701.756 
1701.836 
1701.917 
1701.997 
1702.077 
1702.157 
1702.238 
1702.318 
1702.398 
1702.478 
1702.559 
1702.639 
1702.719 
1702.800 
1702.880 
1702.960 
1703.040 
1703.121 
1703.201 
1703.281 
1703.361 
1703.442 
1703.522 
1703.602 
1703.682 
1703.763 
1703.843 
1703.923 
1704.003 
1704.083 
1704.164 
1704.244 
1704.324 
1704.404 
1704.485 
1704.565 
1704.645 
1704.725 
1704.806 
1704.886 
1704.966 
1705.046 
1705.127 
1705.207 
1705.287 
1705.367 
1705.448 
1705.528 
1705.608 
1705.688 
1705.769 
1705.849 
1705.929 
1706.009 
1706.089 
1706.170 
1706.250 
1706.330 
1706.410 
1706.491 
1706.571 
1706.651 
1706.731 
1706.811 
1706.892 
1706.972 
1707.052 
1707.132 
1707.213 
1707.293 
1707.373 
1707.453 
1707.533 
1707.614 
1707.694 
1707.774 
1707.854 
1707.935 
1708.015 
1708.095 
1708.175 
1708.255 
1708.336 
1708.416 
1708.496 
1708.576 
1708.656 
1708.737 
1708.817 
1708.897 
1708.977 
1709.058 
1709.138 
1709.218 
1709.298 
1709.378 
1709.459 
1709.539 
1709.619 
1709.699 
1709.779 
1709.860 
1709.940 
1710.020 
1710.100 
1710.180 
1710.261 
1710.341 
1710.421 
1710.501 
1710.581 
1710.662 
1710.742 
1710.822 
1710.902 
1710.982 
1711.063 
1711.143 
1711.223 
1711.303 
1711.383 
1711.464 
1711.544 
1711.624 
1711.704 
1711.784 
1711.864 
1711.945 
1712.025 
1712.105 
1712.185 
1712.265 
1712.346 
1712.426 
1712.506 
1712.586 
1712.666 
1712.747 
1712.827 
1712.907 
1712.987 
1713.067 
1713.147 
1713.228 
1713.308 
1713.388 
1713.468 
1713.548 
1713.628 
1713.709 
1713.789 
1713.869 
1713.949 
1714.029 
1714.110 
1714.190 
1714.270 
1714.350 
1714.430 
1714.510 
1714.591 
1714.671 
1714.751 
1714.831 
1714.911 
1714.991 
1715.072 
1715.152 
1715.232 
1715.312 
1715.392 
1715.472 
1715.553 
1715.633 
1715.713 
1715.793 
1715.873 
1715.953 
1716.033 
1716.114 
1716.194 
1716.274 
1716.354 
1716.434 
1716.514 
1716.595 
1716.675 
1716.755 
1716.835 
1716.915 
1716.995 
1717.075 
1717.156 
1717.236 
1717.316 
1717.396 
1717.476 
1717.556 
1717.637 
1717.717 
1717.797 
1717.877 
1717.957 
1718.037 
1718.117 
1718.198 
1718.278 
1718.358 
1718.438 
1718.518 
1718.598 
1718.678 
1718.758 
1718.839 
1718.919 
1718.999 
1719.079 
1719.159 
1719.239 
1719.319 
1719.400 
1719.480 
1719.560 
1719.640 
1719.720 
1719.800 
1719.880 
1719.960 
1720.041 
1720.121 
1720.201 
1720.281 
1720.361 
1720.441 
1720.521 
1720.602 
1720.682 
1720.762 
1720.842 
1720.922 
1721.002 
1721.082 
1721.162 
1721.242 
1721.323 
1721.403 
1721.483 
1721.563 
1721.643 
1721.723 
1721.803 
1721.883 
1721.964 
1722.044 
1722.124 
1722.204 
1722.284 
1722.364 
1722.444 
1722.524 
1722.604 
1722.685 
1722.765 
1722.845 
1722.925 
1723.005 
1723.085 
1723.165 
1723.245 
1723.325 
1723.405 
1723.486 
1723.566 
1723.646 
1723.726 
1723.806 
1723.886 
1723.966 
1724.046 
1724.126 
1724.207 
1724.287 
1724.367 
1724.447 
1724.527 
1724.607 
1724.687 
1724.767 
1724.847 
1724.927 
1725.007 
1725.088 
1725.168 
1725.248 
1725.328 
1725.408 
1725.488 
1725.568 
1725.648 
1725.728 
1725.808 
1725.888 
1725.969 
1726.049 
1726.129 
1726.209 
1726.289 
1726.369 
1726.449 
1726.529 
1726.609 
1726.689 
1726.769 
1726.849 
1726.929 
1727.010 
1727.090 
1727.170 
1727.250 
1727.330 
1727.410 
1727.490 
1727.570 
1727.650 
1727.730 
1727.810 
1727.890 
1727.970 
1728.051 
1728.131 
1728.211 
1728.291 
1728.371 
1728.451 
1728.531 
1728.611 
1728.691 
1728.771 
1728.851 
1728.931 
1729.011 
1729.091 
1729.171 
1729.252 
1729.332 
1729.412 
1729.492 
1729.572 
1729.652 
1729.732 
1729.812 
1729.892 
1729.972 
1730.052 
1730.132 
1730.212 
1730.292 
1730.372 
1730.452 
1730.532 
1730.612 
1730.693 
1730.773 
1730.853 
1730.933 
1731.013 
1731.093 
1731.173 
1731.253 
1731.333 
1731.413 
1731.493 
1731.573 
1731.653 
1731.733 
1731.813 
1731.893 
1731.973 
1732.053 
1732.133 
1732.213 
1732.293 
1732.373 
1732.453 
1732.534 
1732.614 
1732.694 
1732.774 
1732.854 
1732.934 
1733.014 
1733.094 
1733.174 
1733.254 
1733.334 
1733.414 
1733.494 
1733.574 
1733.654 
1733.734 
1733.814 
1733.894 
1733.974 
1734.054 
1734.134 
1734.214 
1734.294 
1734.374 
1734.454 
1734.534 
1734.614 
1734.694 
1734.774 
1734.854 
1734.934 
1735.014 
1735.094 
1735.174 
1735.254 
1735.334 
1735.414 
1735.494 
1735.575 
1735.655 
1735.735 
1735.815 
1735.895 
1735.975 
1736.055 
1736.135 
1736.215 
1736.295 
1736.375 
1736.455 
1736.535 
1736.615 
1736.695 
1736.775 
1736.855 
1736.935 
1737.015 
1737.095 
1737.175 
1737.255 
1737.335 
1737.415 
1737.495 
1737.575 
1737.655 
1737.735 
1737.815 
1737.895 
1737.975 
1738.055 
1738.135 
1738.215 
1738.295 
1738.375 
1738.455 
1738.535 
1738.615 
1738.695 
1738.775 
1738.855 
1738.935 
1739.015 
1739.095 
1739.175 
1739.255 
1739.335 
1739.415 
1739.495 
1739.575 
1739.655 
1739.734 
1739.814 
1739.894 
1739.974 
1740.054 
1740.134 
1740.214 
1740.294 
1740.374 
1740.454 
1740.534 
1740.614 
1740.694 
1740.774 
1740.854 
1740.934 
1741.014 
1741.094 
1741.174 
1741.254 
1741.334 
1741.414 
1741.494 
1741.574 
1741.654 
1741.734 
1741.814 
1741.894 
1741.974 
1742.054 
1742.134 
1742.214 
1742.294 
1742.374 
1742.454 
1742.534 
1742.614 
1742.694 
1742.773 
1742.853 
1742.933 
1743.013 
1743.093 
1743.173 
1743.253 
1743.333 
1743.413 
1743.493 
1743.573 
1743.653 
1743.733 
1743.813 
1743.893 
1743.973 
1744.053 
1744.133 
1744.213 
1744.293 
1744.373 
1744.453 
1744.533 
1744.612 
1744.692 
1744.772 
1744.852 
1744.932 
1745.012 
1745.092 
1745.172 
1745.252 
1745.332 
1745.412 
1745.492 
1745.572 
1745.652 
1745.732 
1745.812 
1745.892 
1745.972 
1746.051 
1746.131 
1746.211 
1746.291 
1746.371 
1746.451 
1746.531 
1746.611 
1746.691 
1746.771 
1746.851 
1746.931 
1747.011 
1747.091 
1747.171 
1747.250 
1747.330 
1747.410 
1747.490 
1747.570 
1747.650 
1747.730 
1747.810 
1747.890 
1747.970 
1748.050 
1748.130 
1748.210 
1748.289 
1748.369 
1748.449 
1748.529 
1748.609 
1748.689 
1748.769 
1748.849 
1748.929 
1749.009 
1749.089 
1749.169 
1749.249 
1749.328 
1749.408 
1749.488 
1749.568 
1749.648 
1749.728 
1749.808 
1749.888 
1749.968 
1750.048 
1750.128 
1750.207 
1750.287 
1750.367 
1750.447 
1750.527 
1750.607 
1750.687 
1750.767 
1750.847 
1750.927 
1751.006 
1751.086 
1751.166 
1751.246 
1751.326 
1751.406 
1751.486 
1751.566 
1751.646 
1751.726 
1751.805 
1751.885 
1751.965 
1752.045 
1752.125 
1752.205 
1752.285 
1752.365 
1752.445 
1752.525 
1752.604 
1752.684 
1752.764 
1752.844 
1752.924 
1753.004 
1753.084 
1753.164 
1753.244 
1753.323 
1753.403 
1753.483 
1753.563 
1753.643 
1753.723 
1753.803 
1753.883 
1753.962 
1754.042 
1754.122 
1754.202 
1754.282 
1754.362 
1754.442 
1754.522 
1754.601 
1754.681 
1754.761 
1754.841 
1754.921 
1755.001 
1755.081 
1755.161 
1755.240 
1755.320 
1755.400 
1755.480 
1755.560 
1755.640 
1755.720 
1755.800 
1755.879 
1755.959 
1756.039 
1756.119 
1756.199 
1756.279 
1756.359 
1756.438 
1756.518 
1756.598 
1756.678 
1756.758 
1756.838 
1756.918 
1756.997 
1757.077 
1757.157 
1757.237 
1757.317 
1757.397 
1757.477 
1757.556 
1757.636 
1757.716 
1757.796 
1757.876 
1757.956 
1758.036 
1758.115 
1758.195 
1758.275 
1758.355 
1758.435 
1758.515 
1758.595 
1758.674 
1758.754 
1758.834 
1758.914 
1758.994 
1759.074 
1759.153 
1759.233 
1759.313 
1759.393 
1759.473 
1759.553 
1759.632 
1759.712 
1759.792 
1759.872 
1759.952 
1760.032 
1760.112 
1760.191 
1760.271 
1760.351 
1760.431 
