# Wavelength table for hrs,g160m
1200.000 
1200.072 
1200.144 
1200.216 
1200.288 
1200.360 
1200.432 
1200.504 
1200.576 
1200.648 
1200.720 
1200.792 
1200.864 
1200.936 
1201.008 
1201.080 
1201.152 
1201.224 
1201.296 
1201.368 
1201.440 
1201.512 
1201.584 
1201.656 
1201.728 
1201.800 
1201.872 
1201.944 
1202.016 
1202.088 
1202.160 
1202.232 
1202.304 
1202.376 
1202.448 
1202.520 
1202.592 
1202.664 
1202.736 
1202.808 
1202.880 
1202.952 
1203.024 
1203.096 
1203.167 
1203.239 
1203.311 
1203.383 
1203.455 
1203.527 
1203.599 
1203.671 
1203.743 
1203.815 
1203.887 
1203.959 
1204.031 
1204.103 
1204.175 
1204.247 
1204.319 
1204.391 
1204.463 
1204.535 
1204.607 
1204.679 
1204.751 
1204.823 
1204.895 
1204.967 
1205.039 
1205.111 
1205.183 
1205.255 
1205.327 
1205.399 
1205.471 
1205.542 
1205.614 
1205.686 
1205.758 
1205.830 
1205.902 
1205.974 
1206.046 
1206.118 
1206.190 
1206.262 
1206.334 
1206.406 
1206.478 
1206.550 
1206.622 
1206.694 
1206.766 
1206.838 
1206.910 
1206.982 
1207.054 
1207.125 
1207.197 
1207.269 
1207.341 
1207.413 
1207.485 
1207.557 
1207.629 
1207.701 
1207.773 
1207.845 
1207.917 
1207.989 
1208.061 
1208.133 
1208.205 
1208.277 
1208.349 
1208.420 
1208.492 
1208.564 
1208.636 
1208.708 
1208.780 
1208.852 
1208.924 
1208.996 
1209.068 
1209.140 
1209.212 
1209.284 
1209.356 
1209.428 
1209.499 
1209.571 
1209.643 
1209.715 
1209.787 
1209.859 
1209.931 
1210.003 
1210.075 
1210.147 
1210.219 
1210.291 
1210.363 
1210.435 
1210.506 
1210.578 
1210.650 
1210.722 
1210.794 
1210.866 
1210.938 
1211.010 
1211.082 
1211.154 
1211.226 
1211.298 
1211.370 
1211.441 
1211.513 
1211.585 
1211.657 
1211.729 
1211.801 
1211.873 
1211.945 
1212.017 
1212.089 
1212.161 
1212.233 
1212.304 
1212.376 
1212.448 
1212.520 
1212.592 
1212.664 
1212.736 
1212.808 
1212.880 
1212.952 
1213.024 
1213.095 
1213.167 
1213.239 
1213.311 
1213.383 
1213.455 
1213.527 
1213.599 
1213.671 
1213.743 
1213.814 
1213.886 
1213.958 
1214.030 
1214.102 
1214.174 
1214.246 
1214.318 
1214.390 
1214.462 
1214.533 
1214.605 
1214.677 
1214.749 
1214.821 
1214.893 
1214.965 
1215.037 
1215.109 
1215.180 
1215.252 
1215.324 
1215.396 
1215.468 
1215.540 
1215.612 
1215.684 
1215.756 
1215.827 
1215.899 
1215.971 
1216.043 
1216.115 
1216.187 
1216.259 
1216.331 
1216.403 
1216.474 
1216.546 
1216.618 
1216.690 
1216.762 
1216.834 
1216.906 
1216.978 
1217.049 
1217.121 
1217.193 
1217.265 
1217.337 
1217.409 
1217.481 
1217.553 
1217.624 
1217.696 
1217.768 
1217.840 
1217.912 
1217.984 
1218.056 
1218.128 
1218.199 
1218.271 
1218.343 
1218.415 
1218.487 
1218.559 
1218.631 
1218.703 
1218.774 
1218.846 
1218.918 
1218.990 
1219.062 
1219.134 
1219.206 
1219.277 
1219.349 
1219.421 
1219.493 
1219.565 
1219.637 
1219.709 
1219.780 
1219.852 
1219.924 
1219.996 
1220.068 
1220.140 
1220.212 
1220.283 
1220.355 
1220.427 
1220.499 
1220.571 
1220.643 
1220.715 
1220.786 
1220.858 
1220.930 
1221.002 
1221.074 
1221.146 
1221.217 
1221.289 
1221.361 
1221.433 
1221.505 
1221.577 
1221.649 
1221.720 
1221.792 
1221.864 
1221.936 
1222.008 
1222.080 
1222.151 
1222.223 
1222.295 
1222.367 
1222.439 
1222.511 
1222.582 
1222.654 
1222.726 
1222.798 
1222.870 
1222.942 
1223.014 
1223.085 
1223.157 
1223.229 
1223.301 
1223.373 
1223.445 
1223.516 
1223.588 
1223.660 
1223.732 
1223.804 
1223.875 
1223.947 
1224.019 
1224.091 
1224.163 
1224.235 
1224.306 
1224.378 
1224.450 
1224.522 
1224.594 
1224.666 
1224.737 
1224.809 
1224.881 
1224.953 
1225.025 
1225.096 
1225.168 
1225.240 
1225.312 
1225.384 
1225.456 
1225.527 
1225.599 
1225.671 
1225.743 
1225.815 
1225.886 
1225.958 
1226.030 
1226.102 
1226.174 
1226.246 
1226.317 
1226.389 
1226.461 
1226.533 
1226.605 
1226.676 
1226.748 
1226.820 
1226.892 
1226.964 
1227.035 
1227.107 
1227.179 
1227.251 
1227.323 
1227.394 
1227.466 
1227.538 
1227.610 
1227.682 
1227.753 
1227.825 
1227.897 
1227.969 
1228.041 
1228.112 
1228.184 
1228.256 
1228.328 
1228.400 
1228.471 
1228.543 
1228.615 
1228.687 
1228.759 
1228.830 
1228.902 
1228.974 
1229.046 
1229.118 
1229.189 
1229.261 
1229.333 
1229.405 
1229.477 
1229.548 
1229.620 
1229.692 
1229.764 
1229.835 
1229.907 
1229.979 
1230.051 
1230.123 
1230.194 
1230.266 
1230.338 
1230.410 
1230.481 
1230.553 
1230.625 
1230.697 
1230.769 
1230.840 
1230.912 
1230.984 
1231.056 
1231.127 
1231.199 
1231.271 
1231.343 
1231.415 
1231.486 
1231.558 
1231.630 
1231.702 
1231.773 
1231.845 
1231.917 
1231.989 
1232.061 
1232.132 
1232.204 
1232.276 
1232.348 
1232.419 
1232.491 
1232.563 
1232.635 
1232.706 
1232.778 
1232.850 
1232.922 
1232.993 
1233.065 
1233.137 
1233.209 
1233.281 
1233.352 
1233.424 
1233.496 
1233.568 
1233.639 
1233.711 
1233.783 
1233.855 
1233.926 
1233.998 
1234.070 
1234.142 
1234.213 
1234.285 
1234.357 
1234.429 
1234.500 
1234.572 
1234.644 
1234.716 
1234.787 
1234.859 
1234.931 
1235.003 
1235.074 
1235.146 
1235.218 
1235.290 
1235.361 
1235.433 
1235.505 
1235.577 
1235.648 
1235.720 
1235.792 
1235.864 
1235.935 
1236.007 
1236.079 
1236.151 
1236.222 
1236.294 
1236.366 
1236.437 
1236.509 
1236.581 
1236.653 
1236.724 
1236.796 
1236.868 
1236.940 
1237.011 
1237.083 
1237.155 
1237.227 
1237.298 
1237.370 
1237.442 
1237.513 
1237.585 
1237.657 
1237.729 
1237.800 
1237.872 
1237.944 
1238.016 
1238.087 
1238.159 
1238.231 
1238.302 
1238.374 
1238.446 
1238.518 
1238.589 
1238.661 
1238.733 
1238.805 
1238.876 
1238.948 
1239.020 
1239.091 
1239.163 
1239.235 
1239.307 
1239.378 
1239.450 
1239.522 
1239.593 
1239.665 
1239.737 
1239.809 
1239.880 
1239.952 
1240.024 
1240.095 
1240.167 
1240.239 
1240.311 
1240.382 
1240.454 
1240.526 
1240.597 
1240.669 
1240.741 
1240.813 
1240.884 
1240.956 
1241.028 
1241.099 
1241.171 
1241.243 
1241.314 
1241.386 
1241.458 
1241.530 
1241.601 
1241.673 
1241.745 
1241.816 
1241.888 
1241.960 
1242.031 
1242.103 
1242.175 
1242.247 
1242.318 
1242.390 
1242.462 
1242.533 
1242.605 
1242.677 
1242.748 
1242.820 
1242.892 
1242.963 
1243.035 
1243.107 
1243.179 
1243.250 
1243.322 
1243.394 
1243.465 
1243.537 
1243.609 
1243.680 
1243.752 
1243.824 
1243.895 
1243.967 
1244.039 
1244.110 
1244.182 
1244.254 
1244.325 
1244.397 
1244.469 
1244.541 
1244.612 
1244.684 
1244.756 
1244.827 
1244.899 
1244.971 
1245.042 
1245.114 
1245.186 
1245.257 
1245.329 
1245.401 
1245.472 
1245.544 
1245.616 
1245.687 
1245.759 
1245.831 
1245.902 
1245.974 
1246.046 
1246.117 
1246.189 
1246.261 
1246.332 
1246.404 
1246.476 
1246.547 
1246.619 
1246.691 
1246.762 
1246.834 
1246.906 
1246.977 
1247.049 
1247.121 
1247.192 
1247.264 
1247.336 
1247.407 
1247.479 
1247.551 
1247.622 
1247.694 
1247.766 
1247.837 
1247.909 
1247.981 
1248.052 
1248.124 
1248.196 
1248.267 
1248.339 
1248.410 
1248.482 
1248.554 
1248.625 
1248.697 
1248.769 
1248.840 
1248.912 
1248.984 
1249.055 
1249.127 
1249.199 
1249.270 
1249.342 
1249.414 
1249.485 
1249.557 
1249.628 
1249.700 
1249.772 
1249.843 
1249.915 
1249.987 
1250.058 
1250.130 
1250.202 
1250.273 
1250.345 
1250.416 
1250.488 
1250.560 
1250.631 
1250.703 
1250.775 
1250.846 
1250.918 
1250.990 
1251.061 
1251.133 
1251.204 
1251.276 
1251.348 
1251.419 
1251.491 
1251.563 
1251.634 
1251.706 
1251.777 
1251.849 
1251.921 
1251.992 
1252.064 
1252.136 
1252.207 
1252.279 
1252.350 
1252.422 
1252.494 
1252.565 
1252.637 
1252.709 
1252.780 
1252.852 
1252.923 
1252.995 
1253.067 
1253.138 
1253.210 
1253.282 
1253.353 
1253.425 
1253.496 
1253.568 
1253.640 
1253.711 
1253.783 
1253.854 
1253.926 
1253.998 
1254.069 
1254.141 
1254.213 
1254.284 
1254.356 
1254.427 
1254.499 
1254.571 
1254.642 
1254.714 
1254.785 
1254.857 
1254.929 
1255.000 
1255.072 
1255.143 
1255.215 
1255.287 
1255.358 
1255.430 
1255.501 
1255.573 
1255.645 
1255.716 
1255.788 
1255.859 
1255.931 
1256.003 
1256.074 
1256.146 
1256.217 
1256.289 
1256.361 
1256.432 
1256.504 
1256.575 
1256.647 
1256.719 
1256.790 
1256.862 
1256.933 
1257.005 
1257.076 
1257.148 
1257.220 
1257.291 
1257.363 
1257.434 
1257.506 
1257.578 
1257.649 
1257.721 
1257.792 
1257.864 
1257.935 
1258.007 
1258.079 
1258.150 
1258.222 
1258.293 
1258.365 
1258.437 
1258.508 
1258.580 
1258.651 
1258.723 
1258.794 
1258.866 
1258.938 
1259.009 
1259.081 
1259.152 
1259.224 
1259.295 
1259.367 
1259.439 
1259.510 
1259.582 
1259.653 
1259.725 
1259.796 
1259.868 
1259.940 
1260.011 
1260.083 
1260.154 
1260.226 
1260.297 
1260.369 
1260.441 
1260.512 
1260.584 
1260.655 
1260.727 
1260.798 
1260.870 
1260.941 
1261.013 
1261.085 
1261.156 
1261.228 
1261.299 
1261.371 
1261.442 
1261.514 
1261.586 
1261.657 
1261.729 
1261.800 
1261.872 
1261.943 
1262.015 
1262.086 
1262.158 
1262.230 
1262.301 
1262.373 
1262.444 
1262.516 
1262.587 
1262.659 
1262.730 
1262.802 
1262.873 
1262.945 
1263.017 
1263.088 
1263.160 
1263.231 
1263.303 
1263.374 
1263.446 
1263.517 
1263.589 
1263.660 
1263.732 
1263.804 
1263.875 
1263.947 
1264.018 
1264.090 
1264.161 
1264.233 
1264.304 
1264.376 
1264.447 
1264.519 
1264.590 
1264.662 
1264.733 
1264.805 
1264.877 
1264.948 
1265.020 
1265.091 
1265.163 
1265.234 
1265.306 
1265.377 
1265.449 
1265.520 
1265.592 
1265.663 
1265.735 
1265.806 
1265.878 
1265.949 
1266.021 
1266.093 
1266.164 
1266.236 
1266.307 
1266.379 
1266.450 
1266.522 
1266.593 
1266.665 
1266.736 
1266.808 
1266.879 
1266.951 
1267.022 
1267.094 
1267.165 
1267.237 
1267.308 
1267.380 
1267.451 
1267.523 
1267.594 
1267.666 
1267.737 
1267.809 
1267.880 
1267.952 
1268.023 
1268.095 
1268.166 
1268.238 
1268.309 
1268.381 
1268.453 
1268.524 
1268.596 
1268.667 
1268.739 
1268.810 
1268.882 
1268.953 
1269.025 
1269.096 
1269.168 
1269.239 
1269.311 
1269.382 
1269.454 
1269.525 
1269.597 
1269.668 
1269.740 
1269.811 
1269.883 
1269.954 
1270.026 
1270.097 
1270.169 
1270.240 
1270.311 
1270.383 
1270.454 
1270.526 
1270.597 
1270.669 
1270.740 
1270.812 
1270.883 
1270.955 
1271.026 
1271.098 
1271.169 
1271.241 
1271.312 
1271.384 
1271.455 
1271.527 
1271.598 
1271.670 
1271.741 
1271.813 
1271.884 
1271.956 
1272.027 
1272.099 
1272.170 
1272.242 
1272.313 
1272.385 
1272.456 
1272.528 
1272.599 
1272.670 
1272.742 
1272.813 
1272.885 
1272.956 
1273.028 
1273.099 
1273.171 
1273.242 
1273.314 
1273.385 
1273.457 
1273.528 
1273.600 
1273.671 
1273.743 
1273.814 
1273.885 
1273.957 
1274.028 
1274.100 
1274.171 
1274.243 
1274.314 
1274.386 
1274.457 
1274.529 
1274.600 
1274.672 
1274.743 
1274.815 
1274.886 
1274.957 
1275.029 
1275.100 
1275.172 
1275.243 
1275.315 
1275.386 
1275.458 
1275.529 
1275.601 
1275.672 
1275.743 
1275.815 
1275.886 
1275.958 
1276.029 
1276.101 
1276.172 
1276.244 
1276.315 
1276.387 
1276.458 
1276.529 
1276.601 
1276.672 
1276.744 
1276.815 
1276.887 
1276.958 
1277.030 
1277.101 
1277.172 
1277.244 
1277.315 
1277.387 
1277.458 
1277.530 
1277.601 
1277.673 
1277.744 
1277.815 
1277.887 
1277.958 
1278.030 
1278.101 
1278.173 
1278.244 
1278.315 
1278.387 
1278.458 
1278.530 
1278.601 
1278.673 
1278.744 
1278.815 
1278.887 
1278.958 
1279.030 
1279.101 
1279.173 
1279.244 
1279.315 
1279.387 
1279.458 
1279.530 
1279.601 
1279.673 
1279.744 
1279.815 
1279.887 
1279.958 
1280.030 
1280.101 
1280.173 
1280.244 
1280.315 
1280.387 
1280.458 
1280.530 
1280.601 
1280.673 
1280.744 
1280.815 
1280.887 
1280.958 
1281.030 
1281.101 
1281.172 
1281.244 
1281.315 
1281.387 
1281.458 
1281.529 
1281.601 
1281.672 
1281.744 
1281.815 
1281.887 
1281.958 
1282.029 
1282.101 
1282.172 
1282.244 
1282.315 
1282.386 
1282.458 
1282.529 
1282.601 
1282.672 
1282.743 
1282.815 
1282.886 
1282.958 
1283.029 
1283.100 
1283.172 
1283.243 
1283.315 
1283.386 
1283.457 
1283.529 
1283.600 
1283.672 
1283.743 
1283.814 
1283.886 
1283.957 
1284.029 
1284.100 
1284.171 
1284.243 
1284.314 
1284.386 
1284.457 
1284.528 
1284.600 
1284.671 
1284.742 
1284.814 
1284.885 
1284.957 
1285.028 
1285.099 
1285.171 
1285.242 
1285.314 
1285.385 
1285.456 
1285.528 
1285.599 
1285.670 
1285.742 
1285.813 
1285.885 
1285.956 
1286.027 
1286.099 
1286.170 
1286.242 
1286.313 
1286.384 
1286.456 
1286.527 
1286.598 
1286.670 
1286.741 
1286.813 
1286.884 
1286.955 
1287.027 
1287.098 
1287.169 
1287.241 
1287.312 
1287.384 
1287.455 
1287.526 
1287.598 
1287.669 
1287.740 
1287.812 
1287.883 
1287.954 
1288.026 
1288.097 
1288.169 
1288.240 
1288.311 
1288.383 
1288.454 
1288.525 
1288.597 
1288.668 
1288.739 
1288.811 
1288.882 
1288.954 
1289.025 
1289.096 
1289.168 
1289.239 
1289.310 
1289.382 
1289.453 
1289.524 
1289.596 
1289.667 
1289.738 
1289.810 
1289.881 
1289.952 
1290.024 
1290.095 
1290.167 
1290.238 
1290.309 
1290.381 
1290.452 
1290.523 
1290.595 
1290.666 
1290.737 
1290.809 
1290.880 
1290.951 
1291.023 
1291.094 
1291.165 
1291.237 
1291.308 
1291.379 
1291.451 
1291.522 
1291.593 
1291.665 
1291.736 
1291.807 
1291.879 
1291.950 
1292.021 
1292.093 
1292.164 
1292.235 
1292.307 
1292.378 
1292.449 
1292.521 
1292.592 
1292.663 
1292.735 
1292.806 
1292.877 
1292.949 
1293.020 
1293.091 
1293.163 
1293.234 
1293.305 
1293.377 
1293.448 
1293.519 
1293.591 
1293.662 
1293.733 
1293.805 
1293.876 
1293.947 
1294.019 
1294.090 
1294.161 
1294.233 
1294.304 
1294.375 
1294.447 
1294.518 
1294.589 
1294.660 
1294.732 
1294.803 
1294.874 
1294.946 
1295.017 
1295.088 
1295.160 
1295.231 
1295.302 
1295.374 
1295.445 
1295.516 
1295.588 
1295.659 
1295.730 
1295.801 
1295.873 
1295.944 
1296.015 
1296.087 
1296.158 
1296.229 
1296.301 
1296.372 
1296.443 
1296.515 
1296.586 
1296.657 
1296.728 
1296.800 
1296.871 
1296.942 
1297.014 
1297.085 
1297.156 
1297.228 
1297.299 
1297.370 
1297.441 
1297.513 
1297.584 
1297.655 
1297.727 
1297.798 
1297.869 
1297.940 
1298.012 
1298.083 
1298.154 
1298.226 
1298.297 
1298.368 
1298.440 
1298.511 
1298.582 
1298.653 
1298.725 
1298.796 
1298.867 
1298.939 
1299.010 
1299.081 
1299.152 
1299.224 
1299.295 
1299.366 
1299.438 
1299.509 
1299.580 
1299.651 
1299.723 
1299.794 
1299.865 
1299.936 
1300.008 
1300.079 
1300.150 
1300.222 
1300.293 
1300.364 
1300.435 
1300.507 
1300.578 
1300.649 
1300.720 
1300.792 
1300.863 
1300.934 
1301.006 
1301.077 
1301.148 
1301.219 
1301.291 
1301.362 
1301.433 
1301.504 
1301.576 
1301.647 
1301.718 
1301.790 
1301.861 
1301.932 
1302.003 
1302.075 
1302.146 
1302.217 
1302.288 
1302.360 
1302.431 
1302.502 
1302.573 
1302.645 
1302.716 
1302.787 
1302.858 
1302.930 
1303.001 
1303.072 
1303.143 
1303.215 
1303.286 
1303.357 
1303.428 
1303.500 
1303.571 
1303.642 
1303.713 
1303.785 
1303.856 
1303.927 
1303.998 
1304.070 
1304.141 
1304.212 
1304.283 
1304.355 
1304.426 
1304.497 
1304.568 
1304.640 
1304.711 
1304.782 
1304.853 
1304.925 
1304.996 
1305.067 
1305.138 
1305.210 
1305.281 
1305.352 
1305.423 
1305.495 
1305.566 
1305.637 
1305.708 
1305.780 
1305.851 
1305.922 
1305.993 
1306.064 
1306.136 
1306.207 
1306.278 
1306.349 
1306.421 
1306.492 
1306.563 
1306.634 
1306.706 
1306.777 
1306.848 
1306.919 
1306.990 
1307.062 
1307.133 
1307.204 
1307.275 
1307.347 
1307.418 
1307.489 
1307.560 
1307.631 
1307.703 
1307.774 
1307.845 
1307.916 
1307.988 
1308.059 
1308.130 
1308.201 
1308.272 
1308.344 
1308.415 
1308.486 
1308.557 
1308.629 
1308.700 
1308.771 
1308.842 
1308.913 
1308.985 
1309.056 
1309.127 
1309.198 
1309.269 
1309.341 
1309.412 
1309.483 
1309.554 
1309.626 
1309.697 
1309.768 
1309.839 
1309.910 
1309.982 
1310.053 
1310.124 
1310.195 
1310.266 
1310.338 
1310.409 
1310.480 
1310.551 
1310.622 
1310.694 
1310.765 
1310.836 
1310.907 
1310.978 
1311.050 
1311.121 
1311.192 
1311.263 
1311.334 
1311.406 
1311.477 
1311.548 
1311.619 
1311.690 
1311.761 
1311.833 
1311.904 
1311.975 
1312.046 
1312.117 
1312.189 
1312.260 
1312.331 
1312.402 
1312.473 
1312.545 
1312.616 
1312.687 
1312.758 
1312.829 
1312.901 
1312.972 
1313.043 
1313.114 
1313.185 
1313.256 
1313.328 
1313.399 
1313.470 
1313.541 
1313.612 
1313.683 
1313.755 
1313.826 
1313.897 
1313.968 
1314.039 
1314.111 
1314.182 
1314.253 
1314.324 
1314.395 
1314.466 
1314.538 
1314.609 
1314.680 
1314.751 
1314.822 
1314.893 
1314.965 
1315.036 
1315.107 
1315.178 
1315.249 
1315.320 
1315.392 
1315.463 
1315.534 
1315.605 
1315.676 
1315.747 
1315.819 
1315.890 
1315.961 
1316.032 
1316.103 
1316.174 
1316.246 
1316.317 
1316.388 
1316.459 
1316.530 
1316.601 
1316.673 
1316.744 
1316.815 
1316.886 
1316.957 
1317.028 
1317.099 
1317.171 
1317.242 
1317.313 
1317.384 
1317.455 
1317.526 
1317.598 
1317.669 
1317.740 
1317.811 
1317.882 
1317.953 
1318.024 
1318.096 
1318.167 
1318.238 
1318.309 
1318.380 
1318.451 
1318.522 
1318.594 
1318.665 
1318.736 
1318.807 
1318.878 
1318.949 
1319.020 
1319.092 
1319.163 
1319.234 
1319.305 
1319.376 
1319.447 
1319.518 
1319.590 
1319.661 
1319.732 
1319.803 
1319.874 
1319.945 
1320.016 
1320.087 
1320.159 
1320.230 
1320.301 
1320.372 
1320.443 
1320.514 
1320.585 
1320.656 
1320.728 
1320.799 
1320.870 
1320.941 
1321.012 
1321.083 
1321.154 
1321.225 
1321.297 
1321.368 
1321.439 
1321.510 
1321.581 
1321.652 
1321.723 
1321.794 
1321.866 
1321.937 
1322.008 
1322.079 
1322.150 
1322.221 
1322.292 
1322.363 
1322.435 
1322.506 
1322.577 
1322.648 
1322.719 
1322.790 
1322.861 
1322.932 
1323.003 
1323.075 
1323.146 
1323.217 
1323.288 
1323.359 
1323.430 
1323.501 
1323.572 
1323.643 
1323.714 
1323.786 
1323.857 
1323.928 
1323.999 
1324.070 
1324.141 
1324.212 
1324.283 
1324.354 
1324.426 
1324.497 
1324.568 
1324.639 
1324.710 
1324.781 
1324.852 
1324.923 
1324.994 
1325.065 
1325.136 
1325.208 
1325.279 
1325.350 
1325.421 
1325.492 
1325.563 
1325.634 
1325.705 
1325.776 
1325.847 
1325.918 
1325.990 
1326.061 
1326.132 
1326.203 
1326.274 
1326.345 
1326.416 
1326.487 
1326.558 
1326.629 
1326.700 
1326.772 
1326.843 
1326.914 
1326.985 
1327.056 
1327.127 
1327.198 
1327.269 
1327.340 
1327.411 
1327.482 
1327.553 
1327.624 
1327.696 
1327.767 
1327.838 
1327.909 
1327.980 
1328.051 
1328.122 
1328.193 
1328.264 
1328.335 
1328.406 
1328.477 
1328.548 
1328.620 
1328.691 
1328.762 
1328.833 
1328.904 
1328.975 
1329.046 
1329.117 
1329.188 
1329.259 
1329.330 
1329.401 
1329.472 
1329.543 
1329.614 
1329.685 
1329.757 
1329.828 
1329.899 
1329.970 
1330.041 
1330.112 
1330.183 
1330.254 
1330.325 
1330.396 
1330.467 
1330.538 
1330.609 
1330.680 
1330.751 
1330.822 
1330.893 
1330.965 
1331.036 
1331.107 
1331.178 
1331.249 
1331.320 
1331.391 
1331.462 
1331.533 
1331.604 
1331.675 
1331.746 
1331.817 
1331.888 
1331.959 
1332.030 
1332.101 
1332.172 
1332.243 
1332.314 
1332.385 
1332.457 
1332.528 
1332.599 
1332.670 
1332.741 
1332.812 
1332.883 
1332.954 
1333.025 
1333.096 
1333.167 
1333.238 
1333.309 
1333.380 
1333.451 
1333.522 
1333.593 
1333.664 
1333.735 
1333.806 
1333.877 
1333.948 
1334.019 
1334.090 
1334.161 
1334.232 
1334.303 
1334.374 
1334.445 
1334.517 
1334.588 
1334.659 
1334.730 
1334.801 
1334.872 
1334.943 
1335.014 
1335.085 
1335.156 
1335.227 
1335.298 
1335.369 
1335.440 
1335.511 
1335.582 
1335.653 
1335.724 
1335.795 
1335.866 
1335.937 
1336.008 
1336.079 
1336.150 
1336.221 
1336.292 
1336.363 
1336.434 
1336.505 
1336.576 
1336.647 
1336.718 
1336.789 
1336.860 
1336.931 
1337.002 
1337.073 
1337.144 
1337.215 
1337.286 
1337.357 
1337.428 
1337.499 
1337.570 
1337.641 
1337.712 
1337.783 
1337.854 
1337.925 
1337.996 
1338.067 
1338.138 
1338.209 
1338.280 
1338.351 
1338.422 
1338.493 
1338.564 
1338.635 
1338.706 
1338.777 
1338.848 
1338.919 
1338.990 
1339.061 
1339.132 
1339.203 
1339.274 
1339.345 
1339.416 
1339.487 
1339.558 
1339.629 
1339.700 
1339.771 
1339.842 
1339.913 
1339.984 
1340.055 
1340.126 
1340.197 
1340.268 
1340.339 
1340.410 
1340.481 
1340.552 
1340.623 
1340.694 
1340.765 
1340.836 
1340.907 
1340.978 
1341.049 
1341.120 
1341.191 
1341.262 
1341.333 
1341.404 
1341.475 
1341.546 
1341.617 
1341.688 
1341.759 
1341.829 
1341.900 
1341.971 
1342.042 
1342.113 
1342.184 
1342.255 
1342.326 
1342.397 
1342.468 
1342.539 
1342.610 
