# Wavelength table for hrs,echa,20
2740.000 
2740.031 
2740.063 
2740.094 
2740.126 
2740.157 
2740.188 
2740.220 
2740.251 
2740.283 
2740.314 
2740.345 
2740.377 
2740.408 
2740.440 
2740.471 
2740.502 
2740.534 
2740.565 
2740.596 
2740.628 
2740.659 
2740.691 
2740.722 
2740.753 
2740.785 
2740.816 
2740.847 
2740.879 
2740.910 
2740.942 
2740.973 
2741.004 
2741.036 
2741.067 
2741.098 
2741.130 
2741.161 
2741.192 
2741.224 
2741.255 
2741.287 
2741.318 
2741.349 
2741.381 
2741.412 
2741.443 
2741.475 
2741.506 
2741.537 
2741.569 
2741.600 
2741.631 
2741.663 
2741.694 
2741.725 
2741.757 
2741.788 
2741.820 
2741.851 
2741.882 
2741.914 
2741.945 
2741.976 
2742.008 
2742.039 
2742.070 
2742.102 
2742.133 
2742.164 
2742.196 
2742.227 
2742.258 
2742.290 
2742.321 
2742.352 
2742.384 
2742.415 
2742.446 
2742.477 
2742.509 
2742.540 
2742.571 
2742.603 
2742.634 
2742.665 
2742.697 
2742.728 
2742.759 
2742.791 
2742.822 
2742.853 
2742.885 
2742.916 
2742.947 
2742.979 
2743.010 
2743.041 
2743.072 
2743.104 
2743.135 
2743.166 
2743.198 
2743.229 
2743.260 
2743.292 
2743.323 
2743.354 
2743.385 
2743.417 
2743.448 
2743.479 
2743.511 
2743.542 
2743.573 
2743.604 
2743.636 
2743.667 
2743.698 
2743.730 
2743.761 
2743.792 
2743.823 
2743.855 
2743.886 
2743.917 
2743.949 
2743.980 
2744.011 
2744.042 
2744.074 
2744.105 
2744.136 
2744.167 
2744.199 
2744.230 
2744.261 
2744.292 
2744.324 
2744.355 
2744.386 
2744.418 
2744.449 
2744.480 
2744.511 
2744.543 
2744.574 
2744.605 
2744.636 
2744.668 
2744.699 
2744.730 
2744.761 
2744.793 
2744.824 
2744.855 
2744.886 
2744.918 
2744.949 
2744.980 
2745.011 
2745.043 
2745.074 
2745.105 
2745.136 
2745.167 
2745.199 
2745.230 
2745.261 
2745.292 
2745.324 
2745.355 
2745.386 
2745.417 
2745.449 
2745.480 
2745.511 
2745.542 
2745.573 
2745.605 
2745.636 
2745.667 
2745.698 
2745.730 
2745.761 
2745.792 
2745.823 
2745.854 
2745.886 
2745.917 
2745.948 
2745.979 
2746.010 
2746.042 
2746.073 
2746.104 
2746.135 
2746.167 
2746.198 
2746.229 
2746.260 
2746.291 
2746.323 
2746.354 
2746.385 
2746.416 
2746.447 
2746.478 
2746.510 
2746.541 
2746.572 
2746.603 
2746.634 
2746.666 
2746.697 
2746.728 
2746.759 
2746.790 
2746.822 
2746.853 
2746.884 
2746.915 
2746.946 
2746.977 
2747.009 
2747.040 
2747.071 
2747.102 
2747.133 
2747.165 
2747.196 
2747.227 
2747.258 
2747.289 
2747.320 
2747.352 
2747.383 
2747.414 
2747.445 
2747.476 
2747.507 
2747.539 
2747.570 
2747.601 
2747.632 
2747.663 
2747.694 
2747.725 
2747.757 
2747.788 
2747.819 
2747.850 
2747.881 
2747.912 
2747.944 
2747.975 
2748.006 
2748.037 
2748.068 
2748.099 
2748.130 
2748.162 
2748.193 
2748.224 
2748.255 
2748.286 
2748.317 
2748.348 
2748.379 
2748.411 
2748.442 
2748.473 
2748.504 
2748.535 
2748.566 
2748.597 
2748.629 
2748.660 
2748.691 
2748.722 
2748.753 
2748.784 
2748.815 
2748.846 
2748.878 
2748.909 
2748.940 
2748.971 
2749.002 
2749.033 
2749.064 
2749.095 
2749.126 
2749.158 
2749.189 
2749.220 
2749.251 
2749.282 
2749.313 
2749.344 
2749.375 
2749.406 
2749.437 
2749.469 
2749.500 
2749.531 
2749.562 
2749.593 
2749.624 
2749.655 
2749.686 
2749.717 
2749.748 
2749.779 
2749.811 
2749.842 
2749.873 
2749.904 
2749.935 
2749.966 
2749.997 
2750.028 
2750.059 
2750.090 
2750.121 
2750.152 
2750.184 
2750.215 
2750.246 
2750.277 
2750.308 
2750.339 
2750.370 
2750.401 
2750.432 
2750.463 
2750.494 
2750.525 
2750.556 
2750.587 
2750.619 
2750.650 
2750.681 
2750.712 
2750.743 
2750.774 
2750.805 
2750.836 
2750.867 
2750.898 
2750.929 
2750.960 
2750.991 
2751.022 
2751.053 
2751.084 
2751.115 
2751.146 
2751.177 
2751.209 
2751.240 
2751.271 
2751.302 
2751.333 
2751.364 
2751.395 
2751.426 
2751.457 
2751.488 
2751.519 
2751.550 
2751.581 
2751.612 
2751.643 
2751.674 
2751.705 
2751.736 
2751.767 
2751.798 
2751.829 
2751.860 
2751.891 
2751.922 
2751.953 
2751.984 
2752.015 
2752.046 
2752.077 
2752.108 
2752.139 
2752.170 
2752.201 
2752.232 
2752.263 
2752.294 
2752.325 
2752.356 
2752.387 
2752.418 
2752.449 
2752.480 
2752.511 
2752.542 
2752.573 
2752.604 
2752.635 
2752.666 
2752.697 
2752.728 
2752.759 
2752.790 
2752.821 
2752.852 
2752.883 
2752.914 
2752.945 
2752.976 
2753.007 
2753.038 
2753.069 
2753.100 
2753.131 
2753.162 
2753.193 
2753.224 
2753.255 
2753.286 
2753.317 
2753.348 
2753.379 
2753.410 
2753.441 
2753.472 
2753.503 
2753.534 
2753.565 
2753.596 
2753.627 
2753.658 
2753.689 
2753.720 
2753.751 
2753.782 
2753.813 
2753.844 
2753.875 
2753.906 
2753.936 
2753.967 
2753.998 
2754.029 
2754.060 
2754.091 
2754.122 
2754.153 
2754.184 
2754.215 
2754.246 
2754.277 
2754.308 
2754.339 
2754.370 
2754.401 
2754.432 
2754.463 
2754.494 
2754.524 
2754.555 
2754.586 
2754.617 
2754.648 
2754.679 
2754.710 
2754.741 
2754.772 
2754.803 
2754.834 
2754.865 
2754.896 
2754.927 
2754.957 
2754.988 
2755.019 
2755.050 
2755.081 
2755.112 
2755.143 
2755.174 
2755.205 
2755.236 
2755.267 
2755.298 
2755.328 
2755.359 
2755.390 
2755.421 
2755.452 
2755.483 
2755.514 
2755.545 
2755.576 
2755.607 
2755.638 
2755.668 
2755.699 
2755.730 
2755.761 
2755.792 
2755.823 
2755.854 
2755.885 
2755.916 
2755.946 
2755.977 
2756.008 
2756.039 
2756.070 
2756.101 
2756.132 
2756.163 
2756.194 
2756.224 
2756.255 
2756.286 
2756.317 
2756.348 
2756.379 
2756.410 
2756.441 
2756.471 
2756.502 
2756.533 
2756.564 
2756.595 
2756.626 
2756.657 
2756.688 
2756.718 
2756.749 
2756.780 
2756.811 
2756.842 
2756.873 
2756.904 
2756.934 
2756.965 
2756.996 
2757.027 
2757.058 
2757.089 
2757.120 
2757.150 
2757.181 
2757.212 
2757.243 
2757.274 
2757.305 
2757.336 
2757.366 
2757.397 
2757.428 
2757.459 
2757.490 
2757.521 
2757.551 
2757.582 
2757.613 
2757.644 
2757.675 
2757.706 
2757.736 
2757.767 
2757.798 
2757.829 
2757.860 
2757.891 
2757.921 
2757.952 
2757.983 
2758.014 
2758.045 
2758.076 
2758.106 
2758.137 
2758.168 
2758.199 
2758.230 
2758.260 
2758.291 
2758.322 
2758.353 
2758.384 
2758.415 
2758.445 
2758.476 
2758.507 
2758.538 
2758.569 
2758.599 
2758.630 
2758.661 
2758.692 
2758.723 
2758.753 
2758.784 
2758.815 
2758.846 
2758.877 
2758.907 
2758.938 
2758.969 
2759.000 
2759.031 
2759.061 
2759.092 
2759.123 
2759.154 
2759.185 
2759.215 
2759.246 
2759.277 
2759.308 
2759.338 
2759.369 
2759.400 
2759.431 
2759.462 
2759.492 
2759.523 
2759.554 
2759.585 
2759.615 
2759.646 
2759.677 
2759.708 
2759.739 
2759.769 
2759.800 
2759.831 
2759.862 
2759.892 
2759.923 
2759.954 
2759.985 
2760.015 
2760.046 
2760.077 
2760.108 
2760.138 
2760.169 
2760.200 
2760.231 
2760.261 
2760.292 
2760.323 
2760.354 
2760.384 
2760.415 
2760.446 
2760.477 
2760.507 
2760.538 
2760.569 
2760.600 
2760.630 
2760.661 
2760.692 
2760.723 
2760.753 
2760.784 
2760.815 
2760.846 
2760.876 
2760.907 
2760.938 
2760.968 
2760.999 
2761.030 
2761.061 
2761.091 
2761.122 
2761.153 
2761.184 
2761.214 
2761.245 
2761.276 
2761.306 
2761.337 
2761.368 
2761.399 
2761.429 
2761.460 
2761.491 
2761.521 
2761.552 
2761.583 
2761.614 
2761.644 
2761.675 
2761.706 
2761.736 
2761.767 
2761.798 
2761.829 
2761.859 
2761.890 
2761.921 
2761.951 
2761.982 
2762.013 
2762.043 
2762.074 
2762.105 
2762.135 
2762.166 
2762.197 
2762.228 
2762.258 
2762.289 
2762.320 
2762.350 
2762.381 
2762.412 
2762.442 
2762.473 
2762.504 
2762.534 
2762.565 
2762.596 
2762.626 
2762.657 
2762.688 
2762.718 
2762.749 
2762.780 
2762.810 
2762.841 
2762.872 
2762.902 
2762.933 
2762.964 
2762.994 
2763.025 
2763.056 
2763.086 
2763.117 
2763.148 
2763.178 
2763.209 
2763.240 
2763.270 
2763.301 
2763.332 
2763.362 
2763.393 
2763.424 
2763.454 
2763.485 
2763.516 
2763.546 
2763.577 
2763.607 
2763.638 
2763.669 
2763.699 
2763.730 
2763.761 
2763.791 
2763.822 
2763.853 
2763.883 
2763.914 
2763.945 
2763.975 
2764.006 
2764.036 
2764.067 
2764.098 
2764.128 
2764.159 
2764.190 
2764.220 
2764.251 
2764.281 
2764.312 
2764.343 
2764.373 
2764.404 
2764.435 
2764.465 
2764.496 
2764.526 
2764.557 
2764.588 
2764.618 
2764.649 
2764.679 
2764.710 
2764.741 
2764.771 
2764.802 
2764.832 
2764.863 
2764.894 
2764.924 
2764.955 
2764.985 
2765.016 
2765.047 
2765.077 
2765.108 
2765.138 
2765.169 
2765.200 
2765.230 
2765.261 
2765.291 
2765.322 
2765.353 
2765.383 
2765.414 
2765.444 
2765.475 
2765.505 
2765.536 
2765.567 
2765.597 
2765.628 
2765.658 
2765.689 
2765.720 
2765.750 
2765.781 
2765.811 
2765.842 
2765.872 
2765.903 
2765.934 
2765.964 
2765.995 
2766.025 
2766.056 
2766.086 
2766.117 
2766.147 
2766.178 
2766.209 
2766.239 
2766.270 
2766.300 
2766.331 
2766.361 
2766.392 
2766.422 
2766.453 
2766.484 
2766.514 
2766.545 
2766.575 
2766.606 
2766.636 
2766.667 
2766.697 
2766.728 
2766.758 
2766.789 
2766.820 
2766.850 
2766.881 
2766.911 
2766.942 
2766.972 
2767.003 
2767.033 
2767.064 
2767.094 
2767.125 
2767.155 
2767.186 
2767.216 
2767.247 
2767.278 
2767.308 
2767.339 
2767.369 
2767.400 
2767.430 
2767.461 
2767.491 
2767.522 
2767.552 
2767.583 
2767.613 
2767.644 
2767.674 
2767.705 
2767.735 
2767.766 
2767.796 
2767.827 
2767.857 
2767.888 
2767.918 
2767.949 
2767.979 
2768.010 
2768.040 
2768.071 
2768.101 
2768.132 
2768.162 
2768.193 
2768.223 
2768.254 
2768.284 
2768.315 
2768.345 
2768.376 
2768.406 
2768.437 
2768.467 
2768.498 
2768.528 
2768.559 
2768.589 
2768.620 
2768.650 
2768.681 
2768.711 
2768.742 
2768.772 
2768.802 
2768.833 
2768.863 
2768.894 
2768.924 
2768.955 
2768.985 
2769.016 
2769.046 
2769.077 
2769.107 
2769.138 
2769.168 
2769.199 
2769.229 
2769.259 
2769.290 
2769.320 
2769.351 
2769.381 
2769.412 
2769.442 
2769.473 
2769.503 
2769.534 
2769.564 
2769.594 
2769.625 
2769.655 
2769.686 
2769.716 
2769.747 
2769.777 
2769.808 
2769.838 
2769.868 
2769.899 
2769.929 
2769.960 
2769.990 
2770.021 
2770.051 
2770.082 
2770.112 
2770.142 
2770.173 
2770.203 
2770.234 
2770.264 
2770.295 
2770.325 
2770.355 
2770.386 
2770.416 
2770.447 
2770.477 
2770.507 
2770.538 
2770.568 
2770.599 
2770.629 
2770.660 
2770.690 
2770.720 
2770.751 
2770.781 
2770.812 
2770.842 
2770.872 
2770.903 
2770.933 
2770.964 
2770.994 
2771.024 
2771.055 
2771.085 
2771.116 
2771.146 
2771.176 
2771.207 
2771.237 
2771.268 
2771.298 
2771.328 
2771.359 
2771.389 
2771.420 
2771.450 
2771.480 
2771.511 
2771.541 
2771.572 
2771.602 
2771.632 
2771.663 
2771.693 
2771.723 
2771.754 
2771.784 
2771.815 
2771.845 
2771.875 
2771.906 
2771.936 
2771.966 
2771.997 
2772.027 
2772.058 
2772.088 
2772.118 
2772.149 
2772.179 
2772.209 
2772.240 
2772.270 
2772.300 
2772.331 
2772.361 
2772.392 
2772.422 
2772.452 
2772.483 
2772.513 
2772.543 
2772.574 
2772.604 
2772.634 
2772.665 
2772.695 
2772.725 
2772.756 
2772.786 
2772.816 
2772.847 
2772.877 
2772.907 
2772.938 
2772.968 
2772.998 
2773.029 
2773.059 
2773.089 
2773.120 
2773.150 
2773.180 
2773.211 
2773.241 
2773.271 
2773.302 
2773.332 
2773.362 
2773.393 
2773.423 
2773.453 
2773.484 
2773.514 
2773.544 
2773.575 
2773.605 
2773.635 
2773.666 
2773.696 
2773.726 
2773.757 
2773.787 
2773.817 
2773.848 
2773.878 
2773.908 
2773.938 
2773.969 
2773.999 
2774.029 
2774.060 
2774.090 
2774.120 
2774.151 
2774.181 
2774.211 
2774.241 
2774.272 
2774.302 
2774.332 
2774.363 
2774.393 
2774.423 
2774.454 
2774.484 
2774.514 
2774.544 
2774.575 
2774.605 
2774.635 
2774.666 
2774.696 
2774.726 
2774.756 
2774.787 
2774.817 
2774.847 
2774.877 
2774.908 
2774.938 
2774.968 
2774.999 
2775.029 
2775.059 
2775.089 
2775.120 
2775.150 
2775.180 
2775.210 
2775.241 
2775.271 
2775.301 
2775.331 
2775.362 
2775.392 
2775.422 
2775.453 
2775.483 
2775.513 
2775.543 
2775.574 
2775.604 
2775.634 
2775.664 
2775.695 
2775.725 
2775.755 
2775.785 
2775.816 
2775.846 
2775.876 
2775.906 
2775.937 
2775.967 
2775.997 
2776.027 
2776.057 
2776.088 
2776.118 
2776.148 
2776.178 
2776.209 
2776.239 
2776.269 
2776.299 
2776.330 
2776.360 
2776.390 
2776.420 
2776.450 
2776.481 
2776.511 
2776.541 
2776.571 
2776.602 
2776.632 
2776.662 
2776.692 
2776.722 
2776.753 
2776.783 
2776.813 
2776.843 
2776.873 
2776.904 
2776.934 
2776.964 
2776.994 
2777.025 
2777.055 
2777.085 
2777.115 
2777.145 
2777.176 
2777.206 
2777.236 
2777.266 
2777.296 
2777.327 
2777.357 
2777.387 
2777.417 
2777.447 
2777.477 
2777.508 
2777.538 
2777.568 
2777.598 
2777.628 
2777.659 
2777.689 
2777.719 
2777.749 
2777.779 
2777.810 
2777.840 
2777.870 
2777.900 
2777.930 
2777.960 
2777.991 
2778.021 
2778.051 
2778.081 
2778.111 
2778.141 
2778.172 
2778.202 
2778.232 
2778.262 
2778.292 
2778.322 
2778.353 
2778.383 
2778.413 
2778.443 
2778.473 
2778.503 
2778.534 
2778.564 
2778.594 
2778.624 
2778.654 
2778.684 
2778.714 
2778.745 
2778.775 
2778.805 
2778.835 
2778.865 
2778.895 
2778.925 
2778.956 
2778.986 
2779.016 
2779.046 
2779.076 
2779.106 
2779.136 
2779.167 
2779.197 
2779.227 
2779.257 
2779.287 
2779.317 
2779.347 
2779.377 
2779.408 
2779.438 
2779.468 
2779.498 
2779.528 
2779.558 
2779.588 
2779.618 
2779.649 
2779.679 
2779.709 
2779.739 
2779.769 
2779.799 
2779.829 
2779.859 
2779.890 
2779.920 
2779.950 
2779.980 
2780.010 
2780.040 
2780.070 
2780.100 
2780.130 
2780.160 
2780.191 
2780.221 
2780.251 
2780.281 
2780.311 
2780.341 
2780.371 
2780.401 
2780.431 
2780.461 
2780.492 
2780.522 
2780.552 
2780.582 
2780.612 
2780.642 
2780.672 
2780.702 
2780.732 
2780.762 
2780.792 
2780.822 
2780.853 
2780.883 
2780.913 
2780.943 
2780.973 
2781.003 
2781.033 
2781.063 
2781.093 
2781.123 
2781.153 
2781.183 
2781.213 
2781.243 
2781.274 
2781.304 
2781.334 
2781.364 
2781.394 
2781.424 
2781.454 
2781.484 
2781.514 
2781.544 
2781.574 
2781.604 
2781.634 
2781.664 
2781.694 
2781.724 
2781.754 
2781.784 
2781.815 
2781.845 
2781.875 
2781.905 
2781.935 
2781.965 
2781.995 
2782.025 
2782.055 
2782.085 
2782.115 
2782.145 
2782.175 
2782.205 
2782.235 
2782.265 
2782.295 
2782.325 
2782.355 
2782.385 
2782.415 
2782.445 
2782.475 
2782.505 
2782.535 
2782.565 
2782.595 
2782.625 
2782.655 
2782.685 
2782.715 
2782.746 
2782.776 
2782.806 
2782.836 
2782.866 
2782.896 
2782.926 
2782.956 
2782.986 
2783.016 
2783.046 
2783.076 
2783.106 
2783.136 
2783.166 
2783.196 
2783.226 
2783.256 
2783.286 
2783.316 
2783.346 
2783.376 
2783.406 
2783.436 
2783.466 
2783.496 
2783.526 
2783.556 
2783.586 
2783.616 
2783.646 
2783.676 
2783.706 
2783.735 
2783.765 
2783.795 
2783.825 
2783.855 
2783.885 
2783.915 
2783.945 
2783.975 
2784.005 
2784.035 
2784.065 
2784.095 
2784.125 
2784.155 
2784.185 
2784.215 
2784.245 
2784.275 
2784.305 
2784.335 
2784.365 
2784.395 
2784.425 
2784.455 
2784.485 
2784.515 
2784.545 
2784.575 
2784.605 
2784.635 
2784.664 
2784.694 
2784.724 
2784.754 
2784.784 
2784.814 
2784.844 
2784.874 
2784.904 
2784.934 
2784.964 
2784.994 
2785.024 
2785.054 
2785.084 
2785.114 
2785.144 
2785.174 
2785.203 
2785.233 
2785.263 
2785.293 
2785.323 
2785.353 
2785.383 
2785.413 
2785.443 
2785.473 
2785.503 
2785.533 
2785.563 
2785.593 
2785.622 
2785.652 
2785.682 
2785.712 
2785.742 
2785.772 
2785.802 
2785.832 
2785.862 
2785.892 
2785.922 
2785.952 
2785.981 
2786.011 
2786.041 
2786.071 
2786.101 
2786.131 
2786.161 
2786.191 
2786.221 
2786.251 
2786.280 
2786.310 
2786.340 
2786.370 
2786.400 
2786.430 
2786.460 
2786.490 
2786.520 
2786.550 
2786.579 
2786.609 
2786.639 
2786.669 
2786.699 
2786.729 
2786.759 
2786.789 
2786.818 
2786.848 
2786.878 
2786.908 
2786.938 
2786.968 
2786.998 
2787.028 
2787.057 
2787.087 
2787.117 
2787.147 
2787.177 
2787.207 
2787.237 
2787.267 
2787.296 
2787.326 
2787.356 
2787.386 
2787.416 
2787.446 
2787.476 
2787.505 
2787.535 
2787.565 
2787.595 
2787.625 
2787.655 
2787.685 
2787.714 
2787.744 
2787.774 
2787.804 
2787.834 
2787.864 
2787.894 
2787.923 
2787.953 
2787.983 
2788.013 
2788.043 
2788.073 
2788.102 
2788.132 
2788.162 
2788.192 
2788.222 
2788.252 
2788.281 
2788.311 
2788.341 
2788.371 
2788.401 
2788.431 
2788.460 
2788.490 
2788.520 
2788.550 
2788.580 
2788.610 
2788.639 
2788.669 
2788.699 
2788.729 
2788.759 
2788.788 
2788.818 
2788.848 
2788.878 
2788.908 
2788.938 
2788.967 
2788.997 
2789.027 
2789.057 
2789.087 
2789.116 
2789.146 
2789.176 
2789.206 
2789.236 
2789.265 
2789.295 
2789.325 
2789.355 
2789.385 
2789.414 
2789.444 
2789.474 
2789.504 
2789.534 
2789.563 
2789.593 
2789.623 
2789.653 
2789.682 
2789.712 
2789.742 
2789.772 
2789.802 
2789.831 
2789.861 
2789.891 
2789.921 
2789.950 
2789.980 
2790.010 
2790.040 
2790.070 
2790.099 
2790.129 
2790.159 
2790.189 
2790.218 
2790.248 
2790.278 
2790.308 
2790.337 
2790.367 
2790.397 
2790.427 
2790.457 
2790.486 
2790.516 
2790.546 
2790.576 
2790.605 
2790.635 
2790.665 
2790.695 
2790.724 
2790.754 
2790.784 
2790.814 
2790.843 
2790.873 
2790.903 
2790.933 
2790.962 
2790.992 
2791.022 
2791.052 
2791.081 
2791.111 
2791.141 
2791.170 
2791.200 
2791.230 
2791.260 
2791.289 
2791.319 
2791.349 
2791.379 
2791.408 
2791.438 
2791.468 
2791.497 
2791.527 
2791.557 
2791.587 
2791.616 
2791.646 
2791.676 
2791.706 
2791.735 
2791.765 
2791.795 
2791.824 
2791.854 
2791.884 
2791.914 
2791.943 
2791.973 
2792.003 
2792.032 
2792.062 
2792.092 
2792.121 
2792.151 
2792.181 
2792.211 
2792.240 
2792.270 
2792.300 
2792.329 
2792.359 
2792.389 
2792.418 
2792.448 
2792.478 
2792.508 
2792.537 
2792.567 
2792.597 
2792.626 
2792.656 
2792.686 
2792.715 
2792.745 
2792.775 
2792.804 
2792.834 
2792.864 
2792.893 
2792.923 
2792.953 
2792.982 
2793.012 
2793.042 
2793.072 
2793.101 
2793.131 
2793.161 
2793.190 
2793.220 
2793.250 
2793.279 
2793.309 
2793.339 
2793.368 
2793.398 
2793.427 
2793.457 
2793.487 
2793.516 
2793.546 
2793.576 
2793.605 
2793.635 
2793.665 
2793.694 
2793.724 
2793.754 
2793.783 
2793.813 
2793.843 
2793.872 
2793.902 
2793.932 
2793.961 
2793.991 
2794.021 
2794.050 
2794.080 
2794.109 
2794.139 
2794.169 
2794.198 
2794.228 
2794.258 
2794.287 
2794.317 
2794.346 
2794.376 
2794.406 
2794.435 
2794.465 
2794.495 
2794.524 
2794.554 
2794.583 
2794.613 
2794.643 
2794.672 
2794.702 
2794.732 
2794.761 
2794.791 
2794.820 
2794.850 
2794.880 
2794.909 
2794.939 
2794.968 
2794.998 
2795.028 
2795.057 
2795.087 
2795.117 
2795.146 
2795.176 
2795.205 
2795.235 
2795.265 
2795.294 
2795.324 
2795.353 
2795.383 
2795.412 
2795.442 
2795.472 
2795.501 
2795.531 
2795.560 
2795.590 
2795.620 
2795.649 
2795.679 
2795.708 
2795.738 
2795.768 
2795.797 
2795.827 
2795.856 
2795.886 
2795.915 
2795.945 
2795.975 
2796.004 
2796.034 
2796.063 
2796.093 
2796.122 
2796.152 
2796.182 
2796.211 
2796.241 
2796.270 
2796.300 
2796.329 
2796.359 
2796.389 
2796.418 
2796.448 
2796.477 
2796.507 
2796.536 
2796.566 
2796.595 
2796.625 
2796.655 
2796.684 
2796.714 
2796.743 
2796.773 
2796.802 
2796.832 
2796.861 
2796.891 
2796.920 
2796.950 
2796.980 
2797.009 
2797.039 
2797.068 
2797.098 
2797.127 
2797.157 
2797.186 
2797.216 
2797.245 
2797.275 
2797.304 
2797.334 
2797.363 
2797.393 
2797.423 
2797.452 
2797.482 
2797.511 
2797.541 
2797.570 
2797.600 
2797.629 
2797.659 
2797.688 
2797.718 
2797.747 
2797.777 
2797.806 
2797.836 
2797.865 
2797.895 
2797.924 
2797.954 
2797.983 
2798.013 
2798.042 
2798.072 
2798.101 
2798.131 
2798.160 
2798.190 
2798.219 
2798.249 
2798.278 
2798.308 
2798.337 
2798.367 
2798.396 
2798.426 
2798.455 
2798.485 
2798.514 
2798.544 
2798.573 
2798.603 
2798.632 
2798.662 
2798.691 
2798.721 
2798.750 
2798.780 
2798.809 
2798.839 
2798.868 
2798.898 
2798.927 
2798.957 
2798.986 
2799.015 
2799.045 
2799.074 
2799.104 
2799.133 
2799.163 
2799.192 
2799.222 
2799.251 
2799.281 
2799.310 
2799.340 
2799.369 
2799.399 
2799.428 
2799.457 
2799.487 
2799.516 
2799.546 
2799.575 
2799.605 
2799.634 
2799.664 
2799.693 
2799.723 
2799.752 
2799.781 
2799.811 
2799.840 
2799.870 
2799.899 
2799.929 
2799.958 
2799.988 
2800.017 
2800.046 
2800.076 
2800.105 
2800.135 
2800.164 
2800.194 
2800.223 
2800.252 
2800.282 
2800.311 
2800.341 
2800.370 
2800.400 
2800.429 
2800.458 
2800.488 
2800.517 
2800.547 
2800.576 
2800.606 
2800.635 
2800.664 
