# Wavelength table for hrs,echb,27
2043.000 
2043.023 
2043.046 
2043.069 
2043.092 
2043.114 
2043.137 
2043.160 
2043.183 
2043.206 
2043.229 
2043.252 
2043.275 
2043.298 
2043.321 
2043.343 
2043.366 
2043.389 
2043.412 
2043.435 
2043.458 
2043.481 
2043.504 
2043.527 
2043.549 
2043.572 
2043.595 
2043.618 
2043.641 
2043.664 
2043.687 
2043.710 
2043.732 
2043.755 
2043.778 
2043.801 
2043.824 
2043.847 
2043.870 
2043.893 
2043.915 
2043.938 
2043.961 
2043.984 
2044.007 
2044.030 
2044.053 
2044.075 
2044.098 
2044.121 
2044.144 
2044.167 
2044.190 
2044.213 
2044.235 
2044.258 
2044.281 
2044.304 
2044.327 
2044.350 
2044.373 
2044.395 
2044.418 
2044.441 
2044.464 
2044.487 
2044.510 
2044.533 
2044.555 
2044.578 
2044.601 
2044.624 
2044.647 
2044.670 
2044.693 
2044.715 
2044.738 
2044.761 
2044.784 
2044.807 
2044.830 
2044.852 
2044.875 
2044.898 
2044.921 
2044.944 
2044.967 
2044.989 
2045.012 
2045.035 
2045.058 
2045.081 
2045.104 
2045.126 
2045.149 
2045.172 
2045.195 
2045.218 
2045.241 
2045.263 
2045.286 
2045.309 
2045.332 
2045.355 
2045.378 
2045.400 
2045.423 
2045.446 
2045.469 
2045.492 
2045.514 
2045.537 
2045.560 
2045.583 
2045.606 
2045.629 
2045.651 
2045.674 
2045.697 
2045.720 
2045.743 
2045.765 
2045.788 
2045.811 
2045.834 
2045.857 
2045.879 
2045.902 
2045.925 
2045.948 
2045.971 
2045.993 
2046.016 
2046.039 
2046.062 
2046.085 
2046.107 
2046.130 
2046.153 
2046.176 
2046.199 
2046.221 
2046.244 
2046.267 
2046.290 
2046.313 
2046.335 
2046.358 
2046.381 
2046.404 
2046.426 
2046.449 
2046.472 
2046.495 
2046.518 
2046.540 
2046.563 
2046.586 
2046.609 
2046.632 
2046.654 
2046.677 
2046.700 
2046.723 
2046.745 
2046.768 
2046.791 
2046.814 
2046.837 
2046.859 
2046.882 
2046.905 
2046.928 
2046.950 
2046.973 
2046.996 
2047.019 
2047.041 
2047.064 
2047.087 
2047.110 
2047.133 
2047.155 
2047.178 
2047.201 
2047.224 
2047.246 
2047.269 
2047.292 
2047.315 
2047.337 
2047.360 
2047.383 
2047.406 
2047.428 
2047.451 
2047.474 
2047.497 
2047.519 
2047.542 
2047.565 
2047.588 
2047.610 
2047.633 
2047.656 
2047.679 
2047.701 
2047.724 
2047.747 
2047.770 
2047.792 
2047.815 
2047.838 
2047.861 
2047.883 
2047.906 
2047.929 
2047.952 
2047.974 
2047.997 
2048.020 
2048.042 
2048.065 
2048.088 
2048.111 
2048.133 
2048.156 
2048.179 
2048.202 
2048.224 
2048.247 
2048.270 
2048.292 
2048.315 
2048.338 
2048.361 
2048.383 
2048.406 
2048.429 
2048.452 
2048.474 
2048.497 
2048.520 
2048.542 
2048.565 
2048.588 
2048.611 
2048.633 
2048.656 
2048.679 
2048.701 
2048.724 
2048.747 
2048.770 
2048.792 
2048.815 
2048.838 
2048.860 
2048.883 
2048.906 
2048.928 
2048.951 
2048.974 
2048.997 
2049.019 
2049.042 
2049.065 
2049.087 
2049.110 
2049.133 
2049.155 
2049.178 
2049.201 
2049.224 
2049.246 
2049.269 
2049.292 
2049.314 
2049.337 
2049.360 
2049.382 
2049.405 
2049.428 
2049.450 
2049.473 
2049.496 
2049.518 
2049.541 
2049.564 
2049.587 
2049.609 
2049.632 
2049.655 
2049.677 
2049.700 
2049.723 
2049.745 
2049.768 
2049.791 
2049.813 
2049.836 
2049.859 
2049.881 
2049.904 
2049.927 
2049.949 
2049.972 
2049.995 
2050.017 
2050.040 
2050.063 
2050.085 
2050.108 
2050.131 
2050.153 
2050.176 
2050.199 
2050.221 
2050.244 
2050.267 
2050.289 
2050.312 
2050.335 
2050.357 
2050.380 
2050.403 
2050.425 
2050.448 
2050.471 
2050.493 
2050.516 
2050.539 
2050.561 
2050.584 
2050.606 
2050.629 
2050.652 
2050.674 
2050.697 
2050.720 
2050.742 
2050.765 
2050.788 
2050.810 
2050.833 
2050.856 
2050.878 
2050.901 
2050.923 
2050.946 
2050.969 
2050.991 
2051.014 
2051.037 
2051.059 
2051.082 
2051.105 
2051.127 
2051.150 
2051.172 
2051.195 
2051.218 
2051.240 
2051.263 
2051.286 
2051.308 
2051.331 
2051.353 
2051.376 
2051.399 
2051.421 
2051.444 
2051.467 
2051.489 
2051.512 
2051.534 
2051.557 
2051.580 
2051.602 
2051.625 
2051.647 
2051.670 
2051.693 
2051.715 
2051.738 
2051.760 
2051.783 
2051.806 
2051.828 
2051.851 
2051.874 
2051.896 
2051.919 
2051.941 
2051.964 
2051.987 
2052.009 
2052.032 
2052.054 
2052.077 
2052.100 
2052.122 
2052.145 
2052.167 
2052.190 
2052.213 
2052.235 
2052.258 
2052.280 
2052.303 
2052.325 
2052.348 
2052.371 
2052.393 
2052.416 
2052.438 
2052.461 
2052.484 
2052.506 
2052.529 
2052.551 
2052.574 
2052.597 
2052.619 
2052.642 
2052.664 
2052.687 
2052.709 
2052.732 
2052.755 
2052.777 
2052.800 
2052.822 
2052.845 
2052.867 
2052.890 
2052.913 
2052.935 
2052.958 
2052.980 
2053.003 
2053.025 
2053.048 
2053.071 
2053.093 
2053.116 
2053.138 
2053.161 
2053.183 
2053.206 
2053.228 
2053.251 
2053.274 
2053.296 
2053.319 
2053.341 
2053.364 
2053.386 
2053.409 
2053.431 
2053.454 
2053.477 
2053.499 
2053.522 
2053.544 
2053.567 
2053.589 
2053.612 
2053.634 
2053.657 
2053.680 
2053.702 
2053.725 
2053.747 
2053.770 
2053.792 
2053.815 
2053.837 
2053.860 
2053.882 
2053.905 
2053.927 
2053.950 
2053.973 
2053.995 
2054.018 
2054.040 
2054.063 
2054.085 
2054.108 
2054.130 
2054.153 
2054.175 
2054.198 
2054.220 
2054.243 
2054.265 
2054.288 
2054.310 
2054.333 
2054.356 
2054.378 
2054.401 
2054.423 
2054.446 
2054.468 
2054.491 
2054.513 
2054.536 
2054.558 
2054.581 
2054.603 
2054.626 
2054.648 
2054.671 
2054.693 
2054.716 
2054.738 
2054.761 
2054.783 
2054.806 
2054.828 
2054.851 
2054.873 
2054.896 
2054.918 
2054.941 
2054.963 
2054.986 
2055.008 
2055.031 
2055.053 
2055.076 
2055.098 
2055.121 
2055.143 
2055.166 
2055.188 
2055.211 
2055.233 
2055.256 
2055.278 
2055.301 
2055.323 
2055.346 
2055.368 
2055.391 
2055.413 
2055.436 
2055.458 
2055.481 
2055.503 
2055.526 
2055.548 
2055.571 
2055.593 
2055.616 
2055.638 
2055.661 
2055.683 
2055.706 
2055.728 
2055.750 
2055.773 
2055.795 
2055.818 
2055.840 
2055.863 
2055.885 
2055.908 
2055.930 
2055.953 
2055.975 
2055.998 
2056.020 
2056.043 
2056.065 
2056.088 
2056.110 
2056.132 
2056.155 
2056.177 
2056.200 
2056.222 
2056.245 
2056.267 
2056.290 
2056.312 
2056.335 
2056.357 
2056.379 
2056.402 
2056.424 
2056.447 
2056.469 
2056.492 
2056.514 
2056.537 
2056.559 
2056.582 
2056.604 
2056.626 
2056.649 
2056.671 
2056.694 
2056.716 
2056.739 
2056.761 
2056.784 
2056.806 
2056.828 
2056.851 
2056.873 
2056.896 
2056.918 
2056.941 
2056.963 
2056.985 
2057.008 
2057.030 
2057.053 
2057.075 
2057.098 
2057.120 
2057.142 
2057.165 
2057.187 
2057.210 
2057.232 
2057.255 
2057.277 
2057.299 
2057.322 
2057.344 
2057.367 
2057.389 
2057.412 
2057.434 
2057.456 
2057.479 
2057.501 
2057.524 
2057.546 
2057.568 
2057.591 
2057.613 
2057.636 
2057.658 
2057.681 
2057.703 
2057.725 
2057.748 
2057.770 
2057.793 
2057.815 
2057.837 
2057.860 
2057.882 
2057.905 
2057.927 
2057.949 
2057.972 
2057.994 
2058.017 
2058.039 
2058.061 
2058.084 
2058.106 
2058.129 
2058.151 
2058.173 
2058.196 
2058.218 
2058.241 
2058.263 
2058.285 
2058.308 
2058.330 
2058.353 
2058.375 
2058.397 
2058.420 
2058.442 
2058.464 
2058.487 
2058.509 
2058.532 
2058.554 
2058.576 
2058.599 
2058.621 
2058.643 
2058.666 
2058.688 
2058.711 
2058.733 
2058.755 
2058.778 
2058.800 
2058.822 
2058.845 
2058.867 
2058.890 
2058.912 
2058.934 
2058.957 
2058.979 
2059.001 
2059.024 
2059.046 
2059.069 
2059.091 
2059.113 
2059.136 
2059.158 
2059.180 
2059.203 
2059.225 
2059.247 
2059.270 
2059.292 
2059.314 
2059.337 
2059.359 
2059.382 
2059.404 
2059.426 
2059.449 
2059.471 
2059.493 
2059.516 
2059.538 
2059.560 
2059.583 
2059.605 
2059.627 
2059.650 
2059.672 
2059.694 
2059.717 
2059.739 
2059.761 
2059.784 
2059.806 
2059.828 
2059.851 
2059.873 
2059.895 
2059.918 
2059.940 
2059.962 
2059.985 
2060.007 
2060.029 
2060.052 
2060.074 
2060.096 
2060.119 
2060.141 
2060.163 
2060.186 
2060.208 
2060.230 
2060.253 
2060.275 
2060.297 
2060.320 
2060.342 
2060.364 
2060.387 
2060.409 
2060.431 
2060.454 
2060.476 
2060.498 
2060.521 
2060.543 
2060.565 
2060.588 
2060.610 
2060.632 
2060.654 
2060.677 
2060.699 
2060.721 
2060.744 
2060.766 
2060.788 
2060.811 
2060.833 
2060.855 
2060.878 
2060.900 
2060.922 
2060.944 
2060.967 
2060.989 
2061.011 
2061.034 
2061.056 
2061.078 
2061.100 
2061.123 
2061.145 
2061.167 
2061.190 
2061.212 
2061.234 
2061.257 
2061.279 
2061.301 
2061.323 
2061.346 
2061.368 
2061.390 
2061.413 
2061.435 
2061.457 
2061.479 
2061.502 
2061.524 
2061.546 
2061.569 
2061.591 
2061.613 
2061.635 
2061.658 
2061.680 
2061.702 
2061.724 
2061.747 
2061.769 
2061.791 
2061.814 
2061.836 
2061.858 
2061.880 
2061.903 
2061.925 
2061.947 
2061.969 
2061.992 
2062.014 
2062.036 
2062.058 
2062.081 
2062.103 
2062.125 
2062.148 
2062.170 
2062.192 
2062.214 
2062.237 
2062.259 
2062.281 
2062.303 
2062.326 
2062.348 
2062.370 
2062.392 
2062.415 
2062.437 
2062.459 
2062.481 
2062.504 
2062.526 
2062.548 
2062.570 
2062.593 
2062.615 
2062.637 
2062.659 
2062.682 
2062.704 
2062.726 
2062.748 
2062.770 
2062.793 
2062.815 
2062.837 
2062.859 
2062.882 
2062.904 
2062.926 
2062.948 
2062.971 
2062.993 
2063.015 
2063.037 
2063.059 
2063.082 
2063.104 
2063.126 
2063.148 
2063.171 
2063.193 
2063.215 
2063.237 
2063.260 
2063.282 
2063.304 
2063.326 
2063.348 
2063.371 
2063.393 
2063.415 
2063.437 
2063.459 
2063.482 
2063.504 
2063.526 
2063.548 
2063.571 
2063.593 
2063.615 
2063.637 
2063.659 
2063.682 
2063.704 
2063.726 
2063.748 
2063.770 
2063.793 
2063.815 
2063.837 
2063.859 
2063.881 
2063.904 
2063.926 
2063.948 
2063.970 
2063.992 
2064.015 
2064.037 
2064.059 
2064.081 
2064.103 
2064.126 
2064.148 
2064.170 
2064.192 
2064.214 
2064.237 
2064.259 
2064.281 
2064.303 
2064.325 
2064.347 
2064.370 
2064.392 
2064.414 
2064.436 
2064.458 
2064.481 
2064.503 
2064.525 
2064.547 
2064.569 
2064.591 
2064.614 
2064.636 
2064.658 
2064.680 
2064.702 
2064.724 
2064.747 
2064.769 
2064.791 
2064.813 
2064.835 
2064.858 
2064.880 
2064.902 
2064.924 
2064.946 
2064.968 
2064.990 
2065.013 
2065.035 
2065.057 
2065.079 
2065.101 
2065.123 
2065.146 
2065.168 
2065.190 
2065.212 
2065.234 
2065.256 
2065.279 
2065.301 
2065.323 
2065.345 
2065.367 
2065.389 
2065.411 
2065.434 
2065.456 
2065.478 
2065.500 
2065.522 
2065.544 
2065.566 
2065.589 
2065.611 
2065.633 
2065.655 
2065.677 
2065.699 
2065.721 
2065.744 
2065.766 
2065.788 
2065.810 
2065.832 
2065.854 
2065.876 
2065.899 
2065.921 
2065.943 
2065.965 
2065.987 
2066.009 
2066.031 
2066.053 
2066.076 
2066.098 
2066.120 
2066.142 
2066.164 
2066.186 
2066.208 
2066.230 
2066.253 
2066.275 
2066.297 
2066.319 
2066.341 
2066.363 
2066.385 
2066.407 
2066.429 
2066.452 
2066.474 
2066.496 
2066.518 
2066.540 
2066.562 
2066.584 
2066.606 
2066.628 
2066.651 
2066.673 
2066.695 
2066.717 
2066.739 
2066.761 
2066.783 
2066.805 
2066.827 
2066.849 
2066.872 
2066.894 
2066.916 
2066.938 
2066.960 
2066.982 
2067.004 
2067.026 
2067.048 
2067.070 
2067.093 
2067.115 
2067.137 
2067.159 
2067.181 
2067.203 
2067.225 
2067.247 
2067.269 
2067.291 
2067.313 
2067.335 
2067.358 
2067.380 
2067.402 
2067.424 
2067.446 
2067.468 
2067.490 
2067.512 
2067.534 
2067.556 
2067.578 
2067.600 
2067.622 
2067.645 
2067.667 
2067.689 
2067.711 
2067.733 
2067.755 
2067.777 
2067.799 
2067.821 
2067.843 
2067.865 
2067.887 
2067.909 
2067.931 
2067.953 
2067.976 
2067.998 
2068.020 
2068.042 
2068.064 
2068.086 
2068.108 
2068.130 
2068.152 
2068.174 
2068.196 
2068.218 
2068.240 
2068.262 
2068.284 
2068.306 
2068.328 
2068.350 
2068.373 
2068.395 
2068.417 
2068.439 
2068.461 
2068.483 
2068.505 
2068.527 
2068.549 
2068.571 
2068.593 
2068.615 
2068.637 
2068.659 
2068.681 
2068.703 
2068.725 
2068.747 
2068.769 
2068.791 
2068.813 
2068.835 
2068.857 
2068.879 
2068.901 
2068.923 
2068.945 
2068.967 
2068.990 
2069.012 
2069.034 
2069.056 
2069.078 
2069.100 
2069.122 
2069.144 
2069.166 
2069.188 
2069.210 
2069.232 
2069.254 
2069.276 
2069.298 
2069.320 
2069.342 
2069.364 
2069.386 
2069.408 
2069.430 
2069.452 
2069.474 
2069.496 
2069.518 
2069.540 
2069.562 
2069.584 
2069.606 
2069.628 
2069.650 
2069.672 
2069.694 
2069.716 
2069.738 
2069.760 
2069.782 
2069.804 
2069.826 
2069.848 
2069.870 
2069.892 
2069.914 
2069.936 
2069.958 
2069.980 
2070.002 
2070.024 
2070.046 
2070.068 
2070.090 
2070.112 
2070.134 
2070.156 
2070.178 
2070.200 
2070.222 
2070.244 
2070.266 
2070.288 
2070.310 
2070.332 
2070.354 
2070.376 
2070.398 
2070.420 
2070.442 
2070.464 
2070.486 
2070.508 
2070.529 
2070.551 
2070.573 
2070.595 
2070.617 
2070.639 
2070.661 
2070.683 
2070.705 
2070.727 
2070.749 
2070.771 
2070.793 
2070.815 
2070.837 
2070.859 
2070.881 
2070.903 
2070.925 
2070.947 
2070.969 
2070.991 
2071.013 
2071.035 
2071.057 
2071.079 
2071.101 
2071.122 
2071.144 
2071.166 
2071.188 
2071.210 
2071.232 
2071.254 
2071.276 
2071.298 
2071.320 
2071.342 
2071.364 
2071.386 
2071.408 
2071.430 
2071.452 
2071.474 
2071.496 
2071.517 
2071.539 
2071.561 
2071.583 
2071.605 
2071.627 
2071.649 
2071.671 
2071.693 
2071.715 
2071.737 
2071.759 
2071.781 
2071.803 
2071.825 
2071.846 
2071.868 
2071.890 
2071.912 
2071.934 
2071.956 
2071.978 
2072.000 
2072.022 
2072.044 
2072.066 
2072.088 
2072.110 
2072.131 
2072.153 
2072.175 
2072.197 
2072.219 
2072.241 
2072.263 
2072.285 
2072.307 
2072.329 
2072.351 
2072.373 
2072.394 
2072.416 
2072.438 
2072.460 
2072.482 
2072.504 
2072.526 
2072.548 
2072.570 
2072.592 
2072.613 
2072.635 
2072.657 
2072.679 
2072.701 
2072.723 
2072.745 
2072.767 
2072.789 
2072.811 
2072.832 
2072.854 
2072.876 
2072.898 
2072.920 
2072.942 
2072.964 
2072.986 
2073.008 
2073.029 
2073.051 
2073.073 
2073.095 
2073.117 
2073.139 
2073.161 
2073.183 
2073.205 
2073.226 
2073.248 
2073.270 
2073.292 
2073.314 
2073.336 
2073.358 
2073.380 
2073.401 
2073.423 
2073.445 
2073.467 
2073.489 
2073.511 
2073.533 
2073.555 
2073.576 
2073.598 
2073.620 
2073.642 
2073.664 
2073.686 
2073.708 
2073.729 
2073.751 
2073.773 
2073.795 
2073.817 
2073.839 
2073.861 
2073.882 
2073.904 
2073.926 
2073.948 
2073.970 
2073.992 
2074.014 
2074.035 
2074.057 
2074.079 
2074.101 
2074.123 
2074.145 
2074.167 
2074.188 
2074.210 
2074.232 
2074.254 
2074.276 
2074.298 
2074.319 
2074.341 
2074.363 
2074.385 
2074.407 
2074.429 
2074.451 
2074.472 
2074.494 
2074.516 
2074.538 
2074.560 
2074.582 
2074.603 
2074.625 
2074.647 
2074.669 
2074.691 
2074.712 
2074.734 
2074.756 
2074.778 
2074.800 
2074.822 
2074.843 
2074.865 
2074.887 
2074.909 
2074.931 
2074.953 
2074.974 
2074.996 
2075.018 
2075.040 
2075.062 
2075.083 
2075.105 
2075.127 
2075.149 
2075.171 
2075.193 
2075.214 
2075.236 
2075.258 
2075.280 
2075.302 
2075.323 
2075.345 
2075.367 
2075.389 
2075.411 
2075.432 
2075.454 
2075.476 
2075.498 
2075.520 
2075.541 
2075.563 
2075.585 
2075.607 
2075.629 
2075.650 
2075.672 
2075.694 
2075.716 
2075.738 
2075.759 
2075.781 
2075.803 
2075.825 
2075.847 
2075.868 
2075.890 
2075.912 
2075.934 
2075.955 
2075.977 
2075.999 
2076.021 
2076.043 
2076.064 
2076.086 
2076.108 
2076.130 
2076.152 
2076.173 
2076.195 
2076.217 
2076.239 
2076.260 
2076.282 
2076.304 
2076.326 
2076.348 
2076.369 
2076.391 
2076.413 
2076.435 
2076.456 
2076.478 
2076.500 
2076.522 
2076.543 
2076.565 
2076.587 
2076.609 
2076.630 
2076.652 
2076.674 
2076.696 
2076.718 
2076.739 
2076.761 
2076.783 
2076.805 
2076.826 
2076.848 
2076.870 
2076.892 
2076.913 
2076.935 
2076.957 
2076.979 
2077.000 
2077.022 
2077.044 
2077.066 
2077.087 
2077.109 
2077.131 
2077.153 
2077.174 
2077.196 
2077.218 
2077.240 
2077.261 
2077.283 
2077.305 
2077.326 
2077.348 
2077.370 
2077.392 
2077.413 
2077.435 
2077.457 
2077.479 
2077.500 
2077.522 
2077.544 
2077.566 
2077.587 
2077.609 
2077.631 
2077.652 
2077.674 
2077.696 
2077.718 
2077.739 
2077.761 
2077.783 
2077.805 
2077.826 
2077.848 
2077.870 
2077.891 
2077.913 
2077.935 
2077.957 
2077.978 
2078.000 
2078.022 
2078.043 
2078.065 
2078.087 
2078.109 
2078.130 
2078.152 
2078.174 
2078.195 
2078.217 
2078.239 
2078.261 
2078.282 
2078.304 
2078.326 
2078.347 
2078.369 
2078.391 
2078.412 
2078.434 
2078.456 
2078.478 
2078.499 
2078.521 
2078.543 
2078.564 
2078.586 
2078.608 
2078.629 
2078.651 
2078.673 
2078.694 
2078.716 
2078.738 
2078.760 
2078.781 
2078.803 
2078.825 
2078.846 
2078.868 
2078.890 
2078.911 
2078.933 
2078.955 
2078.976 
2078.998 
2079.020 
2079.041 
2079.063 
2079.085 
2079.106 
2079.128 
2079.150 
2079.171 
2079.193 
2079.215 
2079.236 
2079.258 
2079.280 
2079.301 
2079.323 
2079.345 
2079.366 
2079.388 
2079.410 
2079.431 
2079.453 
2079.475 
2079.496 
2079.518 
2079.540 
2079.561 
2079.583 
2079.605 
2079.626 
2079.648 
2079.670 
2079.691 
2079.713 
2079.735 
2079.756 
2079.778 
2079.800 
2079.821 
2079.843 
2079.865 
2079.886 
2079.908 
2079.930 
2079.951 
2079.973 
2079.995 
2080.016 
2080.038 
2080.059 
2080.081 
2080.103 
2080.124 
2080.146 
2080.168 
2080.189 
2080.211 
2080.233 
2080.254 
2080.276 
2080.297 
2080.319 
2080.341 
2080.362 
2080.384 
2080.406 
2080.427 
2080.449 
2080.471 
2080.492 
2080.514 
2080.535 
2080.557 
2080.579 
2080.600 
2080.622 
2080.644 
2080.665 
2080.687 
2080.708 
2080.730 
2080.752 
2080.773 
2080.795 
2080.816 
2080.838 
2080.860 
2080.881 
2080.903 
2080.925 
2080.946 
2080.968 
2080.989 
2081.011 
2081.033 
2081.054 
2081.076 
2081.097 
2081.119 
2081.141 
2081.162 
2081.184 
2081.205 
2081.227 
2081.249 
2081.270 
2081.292 
2081.313 
2081.335 
2081.357 
2081.378 
2081.400 
2081.421 
2081.443 
2081.465 
2081.486 
2081.508 
2081.529 
2081.551 
2081.573 
2081.594 
2081.616 
2081.637 
2081.659 
2081.681 
2081.702 
2081.724 
2081.745 
2081.767 
2081.788 
2081.810 
2081.832 
2081.853 
2081.875 
2081.896 
2081.918 
2081.939 
2081.961 
2081.983 
2082.004 
2082.026 
2082.047 
2082.069 
2082.091 
2082.112 
2082.134 
2082.155 
2082.177 
2082.198 
2082.220 
2082.241 
2082.263 
2082.285 
2082.306 
2082.328 
2082.349 
2082.371 
2082.392 
2082.414 
2082.436 
2082.457 
2082.479 
2082.500 
2082.522 
2082.543 
2082.565 
2082.586 
2082.608 
2082.630 
2082.651 
2082.673 
2082.694 
2082.716 
2082.737 
2082.759 
2082.780 
2082.802 
2082.824 
2082.845 
2082.867 
2082.888 
2082.910 
2082.931 
2082.953 
2082.974 
2082.996 
2083.017 
2083.039 
2083.060 
2083.082 
2083.104 
2083.125 
2083.147 
2083.168 
2083.190 
2083.211 
2083.233 
2083.254 
2083.276 
2083.297 
2083.319 
2083.340 
2083.362 
2083.383 
2083.405 
2083.426 
2083.448 
2083.470 
2083.491 
2083.513 
2083.534 
2083.556 
2083.577 
2083.599 
2083.620 
2083.642 
2083.663 
2083.685 
2083.706 
2083.728 
2083.749 
2083.771 
2083.792 
2083.814 
2083.835 
2083.857 
2083.878 
2083.900 
2083.921 
2083.943 
2083.964 
2083.986 
2084.007 
2084.029 
2084.050 
2084.072 
2084.093 
2084.115 
2084.136 
2084.158 
2084.179 
2084.201 
2084.222 
2084.244 
2084.265 
2084.287 
2084.308 
2084.330 
2084.351 
2084.373 
2084.394 
2084.416 
2084.437 
2084.459 
2084.480 
2084.502 
2084.523 
2084.545 
2084.566 
2084.588 
2084.609 
2084.631 
2084.652 
2084.674 
2084.695 
2084.717 
2084.738 
2084.760 
2084.781 
2084.803 
2084.824 
2084.845 
2084.867 
2084.888 
2084.910 
2084.931 
2084.953 
2084.974 
2084.996 
2085.017 
2085.039 
2085.060 
2085.082 
2085.103 
2085.125 
2085.146 
2085.168 
2085.189 
2085.210 
2085.232 
2085.253 
2085.275 
2085.296 
2085.318 
2085.339 
2085.361 
2085.382 
2085.404 
2085.425 
2085.446 
2085.468 
2085.489 
2085.511 
2085.532 
2085.554 
2085.575 
2085.597 
2085.618 
2085.640 
2085.661 
2085.682 
2085.704 
2085.725 
2085.747 
2085.768 
2085.790 
2085.811 
2085.833 
2085.854 
2085.875 
2085.897 
2085.918 
2085.940 
2085.961 
2085.983 
2086.004 
2086.025 
2086.047 
2086.068 
2086.090 
2086.111 
2086.133 
2086.154 
2086.175 
2086.197 
2086.218 
2086.240 
2086.261 
2086.283 
2086.304 
2086.325 
2086.347 
2086.368 
2086.390 
2086.411 
2086.433 
2086.454 
2086.475 
2086.497 
2086.518 
2086.540 
2086.561 
2086.582 
2086.604 
2086.625 
2086.647 
2086.668 
2086.690 
2086.711 
2086.732 
2086.754 
2086.775 
2086.797 
2086.818 
2086.839 
2086.861 
2086.882 
2086.904 
2086.925 
2086.946 
2086.968 
2086.989 
2087.011 
2087.032 
2087.053 
2087.075 
2087.096 
2087.118 
2087.139 
2087.160 
2087.182 
