# Wavelength table for hrs,echa,25
2203.000 
2203.025 
2203.050 
2203.074 
2203.099 
2203.124 
2203.149 
2203.174 
2203.198 
2203.223 
2203.248 
2203.273 
2203.298 
2203.322 
2203.347 
2203.372 
2203.397 
2203.421 
2203.446 
2203.471 
2203.496 
2203.521 
2203.545 
2203.570 
2203.595 
2203.620 
2203.645 
2203.669 
2203.694 
2203.719 
2203.744 
2203.768 
2203.793 
2203.818 
2203.843 
2203.868 
2203.892 
2203.917 
2203.942 
2203.967 
2203.991 
2204.016 
2204.041 
2204.066 
2204.090 
2204.115 
2204.140 
2204.165 
2204.189 
2204.214 
2204.239 
2204.264 
2204.289 
2204.313 
2204.338 
2204.363 
2204.388 
2204.412 
2204.437 
2204.462 
2204.487 
2204.511 
2204.536 
2204.561 
2204.586 
2204.610 
2204.635 
2204.660 
2204.685 
2204.709 
2204.734 
2204.759 
2204.784 
2204.808 
2204.833 
2204.858 
2204.882 
2204.907 
2204.932 
2204.957 
2204.981 
2205.006 
2205.031 
2205.056 
2205.080 
2205.105 
2205.130 
2205.155 
2205.179 
2205.204 
2205.229 
2205.253 
2205.278 
2205.303 
2205.328 
2205.352 
2205.377 
2205.402 
2205.427 
2205.451 
2205.476 
2205.501 
2205.525 
2205.550 
2205.575 
2205.600 
2205.624 
2205.649 
2205.674 
2205.698 
2205.723 
2205.748 
2205.773 
2205.797 
2205.822 
2205.847 
2205.871 
2205.896 
2205.921 
2205.946 
2205.970 
2205.995 
2206.020 
2206.044 
2206.069 
2206.094 
2206.118 
2206.143 
2206.168 
2206.193 
2206.217 
2206.242 
2206.267 
2206.291 
2206.316 
2206.341 
2206.365 
2206.390 
2206.415 
2206.439 
2206.464 
2206.489 
2206.514 
2206.538 
2206.563 
2206.588 
2206.612 
2206.637 
2206.662 
2206.686 
2206.711 
2206.736 
2206.760 
2206.785 
2206.810 
2206.834 
2206.859 
2206.884 
2206.908 
2206.933 
2206.958 
2206.982 
2207.007 
2207.032 
2207.056 
2207.081 
2207.106 
2207.130 
2207.155 
2207.180 
2207.204 
2207.229 
2207.254 
2207.278 
2207.303 
2207.328 
2207.352 
2207.377 
2207.402 
2207.426 
2207.451 
2207.476 
2207.500 
2207.525 
2207.550 
2207.574 
2207.599 
2207.624 
2207.648 
2207.673 
2207.698 
2207.722 
2207.747 
2207.771 
2207.796 
2207.821 
2207.845 
2207.870 
2207.895 
2207.919 
2207.944 
2207.969 
2207.993 
2208.018 
2208.043 
2208.067 
2208.092 
2208.116 
2208.141 
2208.166 
2208.190 
2208.215 
2208.240 
2208.264 
2208.289 
2208.313 
2208.338 
2208.363 
2208.387 
2208.412 
2208.437 
2208.461 
2208.486 
2208.510 
2208.535 
2208.560 
2208.584 
2208.609 
2208.634 
2208.658 
2208.683 
2208.707 
2208.732 
2208.757 
2208.781 
2208.806 
2208.830 
2208.855 
2208.880 
2208.904 
2208.929 
2208.954 
2208.978 
2209.003 
2209.027 
2209.052 
2209.077 
2209.101 
2209.126 
2209.150 
2209.175 
2209.200 
2209.224 
2209.249 
2209.273 
2209.298 
2209.323 
2209.347 
2209.372 
2209.396 
2209.421 
2209.446 
2209.470 
2209.495 
2209.519 
2209.544 
2209.568 
2209.593 
2209.618 
2209.642 
2209.667 
2209.691 
2209.716 
2209.741 
2209.765 
2209.790 
2209.814 
2209.839 
2209.863 
2209.888 
2209.913 
2209.937 
2209.962 
2209.986 
2210.011 
2210.035 
2210.060 
2210.085 
2210.109 
2210.134 
2210.158 
2210.183 
2210.207 
2210.232 
2210.257 
2210.281 
2210.306 
2210.330 
2210.355 
2210.379 
2210.404 
2210.429 
2210.453 
2210.478 
2210.502 
2210.527 
2210.551 
2210.576 
2210.600 
2210.625 
2210.650 
2210.674 
2210.699 
2210.723 
2210.748 
2210.772 
2210.797 
2210.821 
2210.846 
2210.870 
2210.895 
2210.920 
2210.944 
2210.969 
2210.993 
2211.018 
2211.042 
2211.067 
2211.091 
2211.116 
2211.140 
2211.165 
2211.189 
2211.214 
2211.239 
2211.263 
2211.288 
2211.312 
2211.337 
2211.361 
2211.386 
2211.410 
2211.435 
2211.459 
2211.484 
2211.508 
2211.533 
2211.557 
2211.582 
2211.606 
2211.631 
2211.655 
2211.680 
2211.705 
2211.729 
2211.754 
2211.778 
2211.803 
2211.827 
2211.852 
2211.876 
2211.901 
2211.925 
2211.950 
2211.974 
2211.999 
2212.023 
2212.048 
2212.072 
2212.097 
2212.121 
2212.146 
2212.170 
2212.195 
2212.219 
2212.244 
2212.268 
2212.293 
2212.317 
2212.342 
2212.366 
2212.391 
2212.415 
2212.440 
2212.464 
2212.489 
2212.513 
2212.538 
2212.562 
2212.587 
2212.611 
2212.636 
2212.660 
2212.685 
2212.709 
2212.734 
2212.758 
2212.782 
2212.807 
2212.831 
2212.856 
2212.880 
2212.905 
2212.929 
2212.954 
2212.978 
2213.003 
2213.027 
2213.052 
2213.076 
2213.101 
2213.125 
2213.150 
2213.174 
2213.199 
2213.223 
2213.248 
2213.272 
2213.296 
2213.321 
2213.345 
2213.370 
2213.394 
2213.419 
2213.443 
2213.468 
2213.492 
2213.517 
2213.541 
2213.566 
2213.590 
2213.614 
2213.639 
2213.663 
2213.688 
2213.712 
2213.737 
2213.761 
2213.786 
2213.810 
2213.834 
2213.859 
2213.883 
2213.908 
2213.932 
2213.957 
2213.981 
2214.006 
2214.030 
2214.054 
2214.079 
2214.103 
2214.128 
2214.152 
2214.177 
2214.201 
2214.226 
2214.250 
2214.274 
2214.299 
2214.323 
2214.348 
2214.372 
2214.397 
2214.421 
2214.445 
2214.470 
2214.494 
2214.519 
2214.543 
2214.568 
2214.592 
2214.616 
2214.641 
2214.665 
2214.690 
2214.714 
2214.738 
2214.763 
2214.787 
2214.812 
2214.836 
2214.861 
2214.885 
2214.909 
2214.934 
2214.958 
2214.983 
2215.007 
2215.031 
2215.056 
2215.080 
2215.105 
2215.129 
2215.153 
2215.178 
2215.202 
2215.227 
2215.251 
2215.275 
2215.300 
2215.324 
2215.349 
2215.373 
2215.397 
2215.422 
2215.446 
2215.471 
2215.495 
2215.519 
2215.544 
2215.568 
2215.593 
2215.617 
2215.641 
2215.666 
2215.690 
2215.715 
2215.739 
2215.763 
2215.788 
2215.812 
2215.836 
2215.861 
2215.885 
2215.910 
2215.934 
2215.958 
2215.983 
2216.007 
2216.032 
2216.056 
2216.080 
2216.105 
2216.129 
2216.153 
2216.178 
2216.202 
2216.227 
2216.251 
2216.275 
2216.300 
2216.324 
2216.348 
2216.373 
2216.397 
2216.421 
2216.446 
2216.470 
2216.495 
2216.519 
2216.543 
2216.568 
2216.592 
2216.616 
2216.641 
2216.665 
2216.689 
2216.714 
2216.738 
2216.762 
2216.787 
2216.811 
2216.835 
2216.860 
2216.884 
2216.909 
2216.933 
2216.957 
2216.982 
2217.006 
2217.030 
2217.055 
2217.079 
2217.103 
2217.128 
2217.152 
2217.176 
2217.201 
2217.225 
2217.249 
2217.274 
2217.298 
2217.322 
2217.347 
2217.371 
2217.395 
2217.420 
2217.444 
2217.468 
2217.493 
2217.517 
2217.541 
2217.566 
2217.590 
2217.614 
2217.639 
2217.663 
2217.687 
2217.712 
2217.736 
2217.760 
2217.784 
2217.809 
2217.833 
2217.857 
2217.882 
2217.906 
2217.930 
2217.955 
2217.979 
2218.003 
2218.028 
2218.052 
2218.076 
2218.101 
2218.125 
2218.149 
2218.173 
2218.198 
2218.222 
2218.246 
2218.271 
2218.295 
2218.319 
2218.344 
2218.368 
2218.392 
2218.416 
2218.441 
2218.465 
2218.489 
2218.514 
2218.538 
2218.562 
2218.587 
2218.611 
2218.635 
2218.659 
2218.684 
2218.708 
2218.732 
2218.757 
2218.781 
2218.805 
2218.829 
2218.854 
2218.878 
2218.902 
2218.927 
2218.951 
2218.975 
2218.999 
2219.024 
2219.048 
2219.072 
2219.096 
2219.121 
2219.145 
2219.169 
2219.194 
2219.218 
2219.242 
2219.266 
2219.291 
2219.315 
2219.339 
2219.363 
2219.388 
2219.412 
2219.436 
2219.461 
2219.485 
2219.509 
2219.533 
2219.558 
2219.582 
2219.606 
2219.630 
2219.655 
2219.679 
2219.703 
2219.727 
2219.752 
2219.776 
2219.800 
2219.824 
2219.849 
2219.873 
2219.897 
2219.921 
2219.946 
2219.970 
2219.994 
2220.018 
2220.043 
2220.067 
2220.091 
2220.115 
2220.140 
2220.164 
2220.188 
2220.212 
2220.237 
2220.261 
2220.285 
2220.309 
2220.333 
2220.358 
2220.382 
2220.406 
2220.430 
2220.455 
2220.479 
2220.503 
2220.527 
2220.552 
2220.576 
2220.600 
2220.624 
2220.648 
2220.673 
2220.697 
2220.721 
2220.745 
2220.770 
2220.794 
2220.818 
2220.842 
2220.866 
2220.891 
2220.915 
2220.939 
2220.963 
2220.987 
2221.012 
2221.036 
2221.060 
2221.084 
2221.109 
2221.133 
2221.157 
2221.181 
2221.205 
2221.230 
2221.254 
2221.278 
2221.302 
2221.326 
2221.351 
2221.375 
2221.399 
2221.423 
2221.447 
2221.472 
2221.496 
2221.520 
2221.544 
2221.568 
2221.593 
2221.617 
2221.641 
2221.665 
2221.689 
2221.713 
2221.738 
2221.762 
2221.786 
2221.810 
2221.834 
2221.859 
2221.883 
2221.907 
2221.931 
2221.955 
2221.979 
2222.004 
2222.028 
2222.052 
2222.076 
2222.100 
2222.125 
2222.149 
2222.173 
2222.197 
2222.221 
2222.245 
2222.270 
2222.294 
2222.318 
2222.342 
2222.366 
2222.390 
2222.415 
2222.439 
2222.463 
2222.487 
2222.511 
2222.535 
2222.560 
2222.584 
2222.608 
2222.632 
2222.656 
2222.680 
2222.705 
2222.729 
2222.753 
2222.777 
2222.801 
2222.825 
2222.849 
2222.874 
2222.898 
2222.922 
2222.946 
2222.970 
2222.994 
2223.018 
2223.043 
2223.067 
2223.091 
2223.115 
2223.139 
2223.163 
2223.187 
2223.212 
2223.236 
2223.260 
2223.284 
2223.308 
2223.332 
2223.356 
2223.381 
2223.405 
2223.429 
2223.453 
2223.477 
2223.501 
2223.525 
2223.549 
2223.574 
2223.598 
2223.622 
2223.646 
2223.670 
2223.694 
2223.718 
2223.742 
2223.767 
2223.791 
2223.815 
2223.839 
2223.863 
2223.887 
2223.911 
2223.935 
2223.960 
2223.984 
2224.008 
2224.032 
2224.056 
2224.080 
2224.104 
2224.128 
2224.152 
2224.177 
2224.201 
2224.225 
2224.249 
2224.273 
2224.297 
2224.321 
2224.345 
2224.369 
2224.393 
2224.418 
2224.442 
2224.466 
2224.490 
2224.514 
2224.538 
2224.562 
2224.586 
2224.610 
2224.634 
2224.658 
2224.683 
2224.707 
2224.731 
2224.755 
2224.779 
2224.803 
2224.827 
2224.851 
2224.875 
2224.899 
2224.923 
2224.948 
2224.972 
2224.996 
2225.020 
2225.044 
2225.068 
2225.092 
2225.116 
2225.140 
2225.164 
2225.188 
2225.212 
2225.236 
2225.260 
2225.285 
2225.309 
2225.333 
2225.357 
2225.381 
2225.405 
2225.429 
2225.453 
2225.477 
2225.501 
2225.525 
2225.549 
2225.573 
2225.597 
2225.621 
2225.646 
2225.670 
2225.694 
2225.718 
2225.742 
2225.766 
2225.790 
2225.814 
2225.838 
2225.862 
2225.886 
2225.910 
2225.934 
2225.958 
2225.982 
2226.006 
2226.030 
2226.054 
2226.078 
2226.102 
2226.127 
2226.151 
2226.175 
2226.199 
2226.223 
2226.247 
2226.271 
2226.295 
2226.319 
2226.343 
2226.367 
2226.391 
2226.415 
2226.439 
2226.463 
2226.487 
2226.511 
2226.535 
2226.559 
2226.583 
2226.607 
2226.631 
2226.655 
2226.679 
2226.703 
2226.727 
2226.751 
2226.775 
2226.799 
2226.823 
2226.847 
2226.871 
2226.895 
2226.919 
2226.943 
2226.967 
2226.991 
2227.015 
2227.040 
2227.064 
2227.088 
2227.112 
2227.136 
2227.160 
2227.184 
2227.208 
2227.232 
2227.256 
2227.280 
2227.304 
2227.328 
2227.352 
2227.376 
2227.400 
2227.424 
2227.448 
2227.472 
2227.496 
2227.520 
2227.544 
2227.568 
2227.592 
2227.616 
2227.640 
2227.664 
2227.688 
2227.712 
2227.735 
2227.759 
2227.783 
2227.807 
2227.831 
2227.855 
2227.879 
2227.903 
2227.927 
2227.951 
2227.975 
2227.999 
2228.023 
2228.047 
2228.071 
2228.095 
2228.119 
2228.143 
2228.167 
2228.191 
2228.215 
2228.239 
2228.263 
2228.287 
2228.311 
2228.335 
2228.359 
2228.383 
2228.407 
2228.431 
2228.455 
2228.479 
2228.503 
2228.527 
2228.551 
2228.575 
2228.599 
2228.622 
2228.646 
2228.670 
2228.694 
2228.718 
2228.742 
2228.766 
2228.790 
2228.814 
2228.838 
2228.862 
2228.886 
2228.910 
2228.934 
2228.958 
2228.982 
2229.006 
2229.030 
2229.054 
2229.078 
2229.102 
2229.125 
2229.149 
2229.173 
2229.197 
2229.221 
2229.245 
2229.269 
2229.293 
2229.317 
2229.341 
2229.365 
2229.389 
2229.413 
2229.437 
2229.461 
2229.484 
2229.508 
2229.532 
2229.556 
2229.580 
2229.604 
2229.628 
2229.652 
2229.676 
2229.700 
2229.724 
2229.748 
2229.772 
2229.795 
2229.819 
2229.843 
2229.867 
2229.891 
2229.915 
2229.939 
2229.963 
2229.987 
2230.011 
2230.035 
2230.059 
2230.082 
2230.106 
2230.130 
2230.154 
2230.178 
2230.202 
2230.226 
2230.250 
2230.274 
2230.298 
2230.322 
2230.345 
2230.369 
2230.393 
2230.417 
2230.441 
2230.465 
2230.489 
2230.513 
2230.537 
2230.560 
2230.584 
2230.608 
2230.632 
2230.656 
2230.680 
2230.704 
2230.728 
2230.752 
2230.776 
2230.799 
2230.823 
2230.847 
2230.871 
2230.895 
2230.919 
2230.943 
2230.967 
2230.990 
2231.014 
2231.038 
2231.062 
2231.086 
2231.110 
2231.134 
2231.158 
2231.181 
2231.205 
2231.229 
2231.253 
2231.277 
2231.301 
2231.325 
2231.349 
2231.372 
2231.396 
2231.420 
2231.444 
2231.468 
2231.492 
2231.516 
2231.539 
2231.563 
2231.587 
2231.611 
2231.635 
2231.659 
2231.683 
2231.706 
2231.730 
2231.754 
2231.778 
2231.802 
2231.826 
2231.850 
2231.873 
2231.897 
2231.921 
2231.945 
2231.969 
2231.993 
2232.017 
2232.040 
2232.064 
2232.088 
2232.112 
2232.136 
2232.160 
2232.183 
2232.207 
2232.231 
2232.255 
2232.279 
2232.303 
2232.326 
2232.350 
2232.374 
2232.398 
2232.422 
2232.446 
2232.469 
2232.493 
2232.517 
2232.541 
2232.565 
2232.589 
2232.612 
2232.636 
2232.660 
2232.684 
2232.708 
2232.731 
2232.755 
2232.779 
2232.803 
2232.827 
2232.851 
2232.874 
2232.898 
2232.922 
2232.946 
2232.970 
2232.993 
2233.017 
2233.041 
2233.065 
2233.089 
2233.113 
2233.136 
2233.160 
2233.184 
2233.208 
2233.232 
2233.255 
2233.279 
2233.303 
2233.327 
2233.351 
2233.374 
2233.398 
2233.422 
2233.446 
2233.470 
2233.493 
2233.517 
2233.541 
2233.565 
2233.589 
2233.612 
2233.636 
2233.660 
2233.684 
2233.707 
2233.731 
2233.755 
2233.779 
2233.803 
2233.826 
2233.850 
2233.874 
2233.898 
2233.922 
2233.945 
2233.969 
2233.993 
2234.017 
2234.040 
2234.064 
2234.088 
2234.112 
2234.136 
2234.159 
2234.183 
2234.207 
2234.231 
2234.254 
2234.278 
2234.302 
2234.326 
2234.349 
2234.373 
2234.397 
2234.421 
2234.444 
2234.468 
2234.492 
2234.516 
2234.540 
2234.563 
2234.587 
2234.611 
2234.635 
2234.658 
2234.682 
2234.706 
2234.730 
2234.753 
2234.777 
2234.801 
2234.825 
2234.848 
2234.872 
2234.896 
2234.920 
2234.943 
2234.967 
2234.991 
2235.015 
2235.038 
2235.062 
2235.086 
2235.110 
2235.133 
2235.157 
2235.181 
2235.204 
2235.228 
2235.252 
2235.276 
2235.299 
2235.323 
2235.347 
2235.371 
2235.394 
2235.418 
2235.442 
2235.466 
2235.489 
2235.513 
2235.537 
2235.560 
2235.584 
2235.608 
2235.632 
2235.655 
2235.679 
2235.703 
2235.727 
2235.750 
2235.774 
2235.798 
2235.821 
2235.845 
2235.869 
2235.893 
2235.916 
2235.940 
2235.964 
2235.987 
2236.011 
2236.035 
2236.059 
2236.082 
2236.106 
2236.130 
2236.153 
2236.177 
2236.201 
2236.224 
2236.248 
2236.272 
2236.296 
2236.319 
2236.343 
2236.367 
2236.390 
2236.414 
2236.438 
2236.461 
2236.485 
2236.509 
2236.533 
2236.556 
2236.580 
2236.604 
2236.627 
2236.651 
2236.675 
2236.698 
2236.722 
2236.746 
2236.769 
2236.793 
2236.817 
2236.840 
2236.864 
2236.888 
2236.912 
2236.935 
2236.959 
2236.983 
2237.006 
2237.030 
2237.054 
2237.077 
2237.101 
2237.125 
2237.148 
2237.172 
2237.196 
2237.219 
2237.243 
2237.267 
2237.290 
2237.314 
2237.338 
2237.361 
2237.385 
2237.409 
2237.432 
2237.456 
2237.480 
2237.503 
2237.527 
2237.551 
2237.574 
2237.598 
2237.622 
2237.645 
2237.669 
2237.692 
2237.716 
2237.740 
2237.763 
2237.787 
2237.811 
2237.834 
2237.858 
2237.882 
2237.905 
2237.929 
2237.953 
2237.976 
2238.000 
2238.024 
2238.047 
2238.071 
2238.094 
2238.118 
2238.142 
2238.165 
2238.189 
2238.213 
2238.236 
2238.260 
2238.284 
2238.307 
2238.331 
2238.354 
2238.378 
2238.402 
2238.425 
2238.449 
2238.473 
2238.496 
2238.520 
2238.543 
2238.567 
2238.591 
2238.614 
2238.638 
2238.662 
2238.685 
2238.709 
2238.732 
2238.756 
2238.780 
2238.803 
2238.827 
2238.851 
2238.874 
2238.898 
2238.921 
2238.945 
2238.969 
2238.992 
2239.016 
2239.039 
2239.063 
2239.087 
2239.110 
2239.134 
2239.157 
2239.181 
2239.205 
2239.228 
2239.252 
2239.275 
2239.299 
2239.323 
2239.346 
2239.370 
2239.393 
2239.417 
2239.441 
2239.464 
2239.488 
2239.511 
2239.535 
2239.559 
2239.582 
2239.606 
2239.629 
2239.653 
2239.677 
2239.700 
2239.724 
2239.747 
2239.771 
2239.794 
2239.818 
2239.842 
2239.865 
2239.889 
2239.912 
2239.936 
2239.960 
2239.983 
2240.007 
2240.030 
2240.054 
2240.077 
2240.101 
2240.125 
2240.148 
2240.172 
2240.195 
2240.219 
2240.242 
2240.266 
2240.290 
2240.313 
2240.337 
2240.360 
2240.384 
2240.407 
2240.431 
2240.454 
2240.478 
2240.502 
2240.525 
2240.549 
2240.572 
2240.596 
2240.619 
2240.643 
2240.666 
2240.690 
2240.714 
2240.737 
2240.761 
2240.784 
2240.808 
2240.831 
2240.855 
2240.878 
2240.902 
2240.925 
2240.949 
2240.973 
2240.996 
2241.020 
2241.043 
2241.067 
2241.090 
2241.114 
2241.137 
2241.161 
2241.184 
2241.208 
2241.231 
2241.255 
2241.279 
2241.302 
2241.326 
2241.349 
2241.373 
2241.396 
2241.420 
2241.443 
2241.467 
2241.490 
2241.514 
2241.537 
2241.561 
2241.584 
2241.608 
2241.631 
2241.655 
2241.678 
2241.702 
2241.725 
2241.749 
2241.773 
2241.796 
2241.820 
2241.843 
2241.867 
2241.890 
2241.914 
2241.937 
2241.961 
2241.984 
2242.008 
2242.031 
2242.055 
2242.078 
2242.102 
2242.125 
2242.149 
2242.172 
2242.196 
2242.219 
2242.243 
2242.266 
2242.290 
2242.313 
2242.337 
2242.360 
2242.384 
2242.407 
2242.431 
2242.454 
2242.478 
2242.501 
2242.525 
2242.548 
2242.572 
2242.595 
2242.619 
2242.642 
2242.665 
2242.689 
2242.712 
2242.736 
2242.759 
2242.783 
2242.806 
2242.830 
2242.853 
2242.877 
2242.900 
2242.924 
2242.947 
2242.971 
2242.994 
2243.018 
2243.041 
2243.065 
2243.088 
2243.112 
2243.135 
2243.158 
2243.182 
2243.205 
2243.229 
2243.252 
2243.276 
2243.299 
2243.323 
2243.346 
2243.370 
2243.393 
2243.417 
2243.440 
2243.463 
2243.487 
2243.510 
2243.534 
2243.557 
2243.581 
2243.604 
2243.628 
2243.651 
2243.675 
2243.698 
2243.721 
2243.745 
2243.768 
2243.792 
2243.815 
2243.839 
2243.862 
2243.886 
2243.909 
2243.932 
2243.956 
2243.979 
2244.003 
2244.026 
2244.050 
2244.073 
2244.097 
2244.120 
2244.143 
2244.167 
2244.190 
2244.214 
2244.237 
2244.261 
2244.284 
2244.307 
2244.331 
2244.354 
2244.378 
2244.401 
2244.425 
2244.448 
2244.471 
2244.495 
2244.518 
2244.542 
2244.565 
2244.589 
2244.612 
2244.635 
2244.659 
2244.682 
2244.706 
2244.729 
2244.752 
2244.776 
2244.799 
2244.823 
2244.846 
2244.869 
2244.893 
2244.916 
2244.940 
2244.963 
2244.987 
2245.010 
2245.033 
2245.057 
2245.080 
2245.104 
2245.127 
2245.150 
2245.174 
2245.197 
2245.221 
2245.244 
2245.267 
2245.291 
2245.314 
2245.337 
2245.361 
2245.384 
2245.408 
2245.431 
2245.454 
2245.478 
2245.501 
2245.525 
2245.548 
2245.571 
2245.595 
2245.618 
2245.642 
2245.665 
2245.688 
2245.712 
2245.735 
2245.758 
2245.782 
2245.805 
2245.829 
2245.852 
2245.875 
2245.899 
2245.922 
2245.945 
2245.969 
2245.992 
2246.016 
2246.039 
2246.062 
2246.086 
2246.109 
2246.132 
2246.156 
2246.179 
2246.202 
2246.226 
2246.249 
2246.273 
2246.296 
2246.319 
2246.343 
2246.366 
2246.389 
2246.413 
2246.436 
2246.459 
2246.483 
2246.506 
2246.529 
2246.553 
2246.576 
2246.600 
2246.623 
2246.646 
2246.670 
2246.693 
2246.716 
2246.740 
2246.763 
2246.786 
2246.810 
2246.833 
2246.856 
2246.880 
2246.903 
2246.926 
2246.950 
2246.973 
2246.996 
2247.020 
2247.043 
2247.066 
2247.090 
2247.113 
2247.136 
2247.160 
2247.183 
2247.206 
2247.230 
2247.253 
2247.276 
2247.300 
2247.323 
2247.346 
2247.370 
2247.393 
2247.416 
2247.440 
2247.463 
2247.486 
2247.510 
2247.533 
2247.556 
2247.580 
2247.603 
2247.626 
2247.649 
2247.673 
2247.696 
2247.719 
2247.743 
2247.766 
2247.789 
2247.813 
2247.836 
2247.859 
2247.883 
2247.906 
2247.929 
2247.952 
2247.976 
2247.999 
2248.022 
2248.046 
2248.069 
2248.092 
2248.116 
2248.139 
2248.162 
2248.185 
2248.209 
2248.232 
2248.255 
2248.279 
2248.302 
2248.325 
2248.349 
2248.372 
2248.395 
2248.418 
2248.442 
2248.465 
2248.488 
2248.512 
2248.535 
2248.558 
2248.581 
2248.605 
2248.628 
2248.651 
2248.674 
2248.698 
2248.721 
2248.744 
2248.768 
2248.791 
2248.814 
2248.837 
2248.861 
2248.884 
2248.907 
2248.931 
2248.954 
2248.977 
2249.000 
2249.024 
2249.047 
2249.070 
2249.093 
2249.117 
2249.140 
2249.163 
2249.186 
2249.210 
2249.233 
2249.256 
2249.279 
2249.303 
2249.326 
2249.349 
2249.372 
2249.396 
2249.419 
2249.442 
2249.465 
2249.489 
2249.512 
2249.535 
2249.558 
2249.582 
2249.605 
2249.628 
2249.651 
2249.675 
2249.698 
2249.721 
2249.744 
2249.768 
2249.791 
2249.814 
2249.837 
2249.861 
2249.884 
2249.907 
2249.930 
2249.954 
2249.977 
2250.000 
2250.023 
2250.047 
2250.070 
2250.093 
2250.116 
2250.139 
2250.163 
2250.186 
2250.209 
2250.232 
2250.256 
2250.279 
2250.302 
2250.325 
2250.348 
2250.372 
2250.395 
2250.418 
2250.441 
2250.465 
2250.488 
2250.511 
2250.534 
2250.557 
2250.581 
2250.604 
2250.627 
2250.650 
2250.673 
2250.697 
2250.720 
2250.743 
2250.766 
2250.790 
2250.813 
2250.836 
2250.859 
2250.882 
