# Wavelength table for hrs,echa,31
1784.000 
1784.020 
1784.040 
1784.059 
1784.079 
1784.099 
1784.119 
1784.139 
1784.158 
1784.178 
1784.198 
1784.218 
1784.238 
1784.257 
1784.277 
1784.297 
1784.317 
1784.337 
1784.356 
1784.376 
1784.396 
1784.416 
1784.435 
1784.455 
1784.475 
1784.495 
1784.515 
1784.534 
1784.554 
1784.574 
1784.594 
1784.613 
1784.633 
1784.653 
1784.673 
1784.693 
1784.712 
1784.732 
1784.752 
1784.772 
1784.791 
1784.811 
1784.831 
1784.851 
1784.871 
1784.890 
1784.910 
1784.930 
1784.950 
1784.969 
1784.989 
1785.009 
1785.029 
1785.048 
1785.068 
1785.088 
1785.108 
1785.128 
1785.147 
1785.167 
1785.187 
1785.207 
1785.226 
1785.246 
1785.266 
1785.286 
1785.305 
1785.325 
1785.345 
1785.365 
1785.384 
1785.404 
1785.424 
1785.444 
1785.463 
1785.483 
1785.503 
1785.523 
1785.542 
1785.562 
1785.582 
1785.602 
1785.621 
1785.641 
1785.661 
1785.681 
1785.700 
1785.720 
1785.740 
1785.760 
1785.779 
1785.799 
1785.819 
1785.839 
1785.858 
1785.878 
1785.898 
1785.918 
1785.937 
1785.957 
1785.977 
1785.996 
1786.016 
1786.036 
1786.056 
1786.075 
1786.095 
1786.115 
1786.135 
1786.154 
1786.174 
1786.194 
1786.214 
1786.233 
1786.253 
1786.273 
1786.292 
1786.312 
1786.332 
1786.352 
1786.371 
1786.391 
1786.411 
1786.430 
1786.450 
1786.470 
1786.490 
1786.509 
1786.529 
1786.549 
1786.569 
1786.588 
1786.608 
1786.628 
1786.647 
1786.667 
1786.687 
1786.707 
1786.726 
1786.746 
1786.766 
1786.785 
1786.805 
1786.825 
1786.844 
1786.864 
1786.884 
1786.904 
1786.923 
1786.943 
1786.963 
1786.982 
1787.002 
1787.022 
1787.042 
1787.061 
1787.081 
1787.101 
1787.120 
1787.140 
1787.160 
1787.179 
1787.199 
1787.219 
1787.238 
1787.258 
1787.278 
1787.298 
1787.317 
1787.337 
1787.357 
1787.376 
1787.396 
1787.416 
1787.435 
1787.455 
1787.475 
1787.494 
1787.514 
1787.534 
1787.553 
1787.573 
1787.593 
1787.613 
1787.632 
1787.652 
1787.672 
1787.691 
1787.711 
1787.731 
1787.750 
1787.770 
1787.790 
1787.809 
1787.829 
1787.849 
1787.868 
1787.888 
1787.908 
1787.927 
1787.947 
1787.967 
1787.986 
1788.006 
1788.026 
1788.045 
1788.065 
1788.085 
1788.104 
1788.124 
1788.144 
1788.163 
1788.183 
1788.203 
1788.222 
1788.242 
1788.262 
1788.281 
1788.301 
1788.321 
1788.340 
1788.360 
1788.380 
1788.399 
1788.419 
1788.439 
1788.458 
1788.478 
1788.498 
1788.517 
1788.537 
1788.557 
1788.576 
1788.596 
1788.615 
1788.635 
1788.655 
1788.674 
1788.694 
1788.714 
1788.733 
1788.753 
1788.773 
1788.792 
1788.812 
1788.832 
1788.851 
1788.871 
1788.890 
1788.910 
1788.930 
1788.949 
1788.969 
1788.989 
1789.008 
1789.028 
1789.048 
1789.067 
1789.087 
1789.106 
1789.126 
1789.146 
1789.165 
1789.185 
1789.205 
1789.224 
1789.244 
1789.263 
1789.283 
1789.303 
1789.322 
1789.342 
1789.362 
1789.381 
1789.401 
1789.420 
1789.440 
1789.460 
1789.479 
1789.499 
1789.519 
1789.538 
1789.558 
1789.577 
1789.597 
1789.617 
1789.636 
1789.656 
1789.676 
1789.695 
1789.715 
1789.734 
1789.754 
1789.774 
1789.793 
1789.813 
1789.832 
1789.852 
1789.872 
1789.891 
1789.911 
1789.930 
1789.950 
1789.970 
1789.989 
1790.009 
1790.028 
1790.048 
1790.068 
1790.087 
1790.107 
1790.126 
1790.146 
1790.166 
1790.185 
1790.205 
1790.224 
1790.244 
1790.264 
1790.283 
1790.303 
1790.322 
1790.342 
1790.362 
1790.381 
1790.401 
1790.420 
1790.440 
1790.460 
1790.479 
1790.499 
1790.518 
1790.538 
1790.557 
1790.577 
1790.597 
1790.616 
1790.636 
1790.655 
1790.675 
1790.695 
1790.714 
1790.734 
1790.753 
1790.773 
1790.792 
1790.812 
1790.832 
1790.851 
1790.871 
1790.890 
1790.910 
1790.929 
1790.949 
1790.969 
1790.988 
1791.008 
1791.027 
1791.047 
1791.066 
1791.086 
1791.106 
1791.125 
1791.145 
1791.164 
1791.184 
1791.203 
1791.223 
1791.243 
1791.262 
1791.282 
1791.301 
1791.321 
1791.340 
1791.360 
1791.379 
1791.399 
1791.419 
1791.438 
1791.458 
1791.477 
1791.497 
1791.516 
1791.536 
1791.555 
1791.575 
1791.595 
1791.614 
1791.634 
1791.653 
1791.673 
1791.692 
1791.712 
1791.731 
1791.751 
1791.770 
1791.790 
1791.810 
1791.829 
1791.849 
1791.868 
1791.888 
1791.907 
1791.927 
1791.946 
1791.966 
1791.985 
1792.005 
1792.024 
1792.044 
1792.064 
1792.083 
1792.103 
1792.122 
1792.142 
1792.161 
1792.181 
1792.200 
1792.220 
1792.239 
1792.259 
1792.278 
1792.298 
1792.317 
1792.337 
1792.356 
1792.376 
1792.396 
1792.415 
1792.435 
1792.454 
1792.474 
1792.493 
1792.513 
1792.532 
1792.552 
1792.571 
1792.591 
1792.610 
1792.630 
1792.649 
1792.669 
1792.688 
1792.708 
1792.727 
1792.747 
1792.766 
1792.786 
1792.805 
1792.825 
1792.844 
1792.864 
1792.883 
1792.903 
1792.922 
1792.942 
1792.961 
1792.981 
1793.000 
1793.020 
1793.039 
1793.059 
1793.078 
1793.098 
1793.117 
1793.137 
1793.156 
1793.176 
1793.195 
1793.215 
1793.234 
1793.254 
1793.273 
1793.293 
1793.312 
1793.332 
1793.351 
1793.371 
1793.390 
1793.410 
1793.429 
1793.449 
1793.468 
1793.488 
1793.507 
1793.527 
1793.546 
1793.566 
1793.585 
1793.605 
1793.624 
1793.644 
1793.663 
1793.683 
1793.702 
1793.722 
1793.741 
1793.761 
1793.780 
1793.799 
1793.819 
1793.838 
1793.858 
1793.877 
1793.897 
1793.916 
1793.936 
1793.955 
1793.975 
1793.994 
1794.014 
1794.033 
1794.053 
1794.072 
1794.092 
1794.111 
1794.130 
1794.150 
1794.169 
1794.189 
1794.208 
1794.228 
1794.247 
1794.267 
1794.286 
1794.306 
1794.325 
1794.345 
1794.364 
1794.383 
1794.403 
1794.422 
1794.442 
1794.461 
1794.481 
1794.500 
1794.520 
1794.539 
1794.559 
1794.578 
1794.597 
1794.617 
1794.636 
1794.656 
1794.675 
1794.695 
1794.714 
1794.734 
1794.753 
1794.773 
1794.792 
1794.811 
1794.831 
1794.850 
1794.870 
1794.889 
1794.909 
1794.928 
1794.947 
1794.967 
1794.986 
1795.006 
1795.025 
1795.045 
1795.064 
1795.084 
1795.103 
1795.122 
1795.142 
1795.161 
1795.181 
1795.200 
1795.220 
1795.239 
1795.258 
1795.278 
1795.297 
1795.317 
1795.336 
1795.356 
1795.375 
1795.394 
1795.414 
1795.433 
1795.453 
1795.472 
1795.491 
1795.511 
1795.530 
1795.550 
1795.569 
1795.589 
1795.608 
1795.627 
1795.647 
1795.666 
1795.686 
1795.705 
1795.724 
1795.744 
1795.763 
1795.783 
1795.802 
1795.822 
1795.841 
1795.860 
1795.880 
1795.899 
1795.919 
1795.938 
1795.957 
1795.977 
1795.996 
1796.016 
1796.035 
1796.054 
1796.074 
1796.093 
1796.113 
1796.132 
1796.151 
1796.171 
1796.190 
1796.210 
1796.229 
1796.248 
1796.268 
1796.287 
1796.307 
1796.326 
1796.345 
1796.365 
1796.384 
1796.404 
1796.423 
1796.442 
1796.462 
1796.481 
1796.500 
1796.520 
1796.539 
1796.559 
1796.578 
1796.597 
1796.617 
1796.636 
1796.656 
1796.675 
1796.694 
1796.714 
1796.733 
1796.752 
1796.772 
1796.791 
1796.811 
1796.830 
1796.849 
1796.869 
1796.888 
1796.907 
1796.927 
1796.946 
1796.966 
1796.985 
1797.004 
1797.024 
1797.043 
1797.062 
1797.082 
1797.101 
1797.120 
1797.140 
1797.159 
1797.179 
1797.198 
1797.217 
1797.237 
1797.256 
1797.275 
1797.295 
1797.314 
1797.333 
1797.353 
1797.372 
1797.392 
1797.411 
1797.430 
1797.450 
1797.469 
1797.488 
1797.508 
1797.527 
1797.546 
1797.566 
1797.585 
1797.604 
1797.624 
1797.643 
1797.662 
1797.682 
1797.701 
1797.721 
1797.740 
1797.759 
1797.779 
1797.798 
1797.817 
1797.837 
1797.856 
1797.875 
1797.895 
1797.914 
1797.933 
1797.953 
1797.972 
1797.991 
1798.011 
1798.030 
1798.049 
1798.069 
1798.088 
1798.107 
1798.127 
1798.146 
1798.165 
1798.185 
1798.204 
1798.223 
1798.243 
1798.262 
1798.281 
1798.301 
1798.320 
1798.339 
1798.359 
1798.378 
1798.397 
1798.417 
1798.436 
1798.455 
1798.475 
1798.494 
1798.513 
1798.532 
1798.552 
1798.571 
1798.590 
1798.610 
1798.629 
1798.648 
1798.668 
1798.687 
1798.706 
1798.726 
1798.745 
1798.764 
1798.784 
1798.803 
1798.822 
1798.841 
1798.861 
1798.880 
1798.899 
1798.919 
1798.938 
1798.957 
1798.977 
1798.996 
1799.015 
1799.035 
1799.054 
1799.073 
1799.092 
1799.112 
1799.131 
1799.150 
1799.170 
1799.189 
1799.208 
1799.227 
1799.247 
1799.266 
1799.285 
1799.305 
1799.324 
1799.343 
1799.363 
1799.382 
1799.401 
1799.420 
1799.440 
1799.459 
1799.478 
1799.498 
1799.517 
1799.536 
1799.555 
1799.575 
1799.594 
1799.613 
1799.633 
1799.652 
1799.671 
1799.690 
1799.710 
1799.729 
1799.748 
1799.768 
1799.787 
1799.806 
1799.825 
1799.845 
1799.864 
1799.883 
1799.902 
1799.922 
1799.941 
1799.960 
1799.980 
1799.999 
1800.018 
1800.037 
1800.057 
1800.076 
1800.095 
1800.114 
1800.134 
1800.153 
1800.172 
1800.191 
1800.211 
1800.230 
1800.249 
1800.268 
1800.288 
1800.307 
1800.326 
1800.346 
1800.365 
1800.384 
1800.403 
1800.423 
1800.442 
1800.461 
1800.480 
1800.500 
1800.519 
1800.538 
1800.557 
1800.577 
1800.596 
1800.615 
1800.634 
1800.654 
1800.673 
1800.692 
1800.711 
1800.731 
1800.750 
1800.769 
1800.788 
1800.808 
1800.827 
1800.846 
1800.865 
1800.884 
1800.904 
1800.923 
1800.942 
1800.961 
1800.981 
1801.000 
1801.019 
1801.038 
1801.058 
1801.077 
1801.096 
1801.115 
1801.135 
1801.154 
1801.173 
1801.192 
1801.211 
1801.231 
1801.250 
1801.269 
1801.288 
1801.308 
1801.327 
1801.346 
1801.365 
1801.384 
1801.404 
1801.423 
1801.442 
1801.461 
1801.481 
1801.500 
1801.519 
1801.538 
1801.557 
1801.577 
1801.596 
1801.615 
1801.634 
1801.654 
1801.673 
1801.692 
1801.711 
1801.730 
1801.750 
1801.769 
1801.788 
1801.807 
1801.826 
1801.846 
1801.865 
1801.884 
1801.903 
1801.922 
1801.942 
1801.961 
1801.980 
1801.999 
1802.018 
1802.038 
1802.057 
1802.076 
1802.095 
1802.114 
1802.134 
1802.153 
1802.172 
1802.191 
1802.210 
1802.230 
1802.249 
1802.268 
1802.287 
1802.306 
1802.326 
1802.345 
1802.364 
1802.383 
1802.402 
1802.422 
1802.441 
1802.460 
1802.479 
1802.498 
1802.517 
1802.537 
1802.556 
1802.575 
1802.594 
1802.613 
1802.633 
1802.652 
1802.671 
1802.690 
1802.709 
1802.728 
1802.748 
1802.767 
1802.786 
1802.805 
1802.824 
1802.844 
1802.863 
1802.882 
1802.901 
1802.920 
1802.939 
1802.959 
1802.978 
1802.997 
1803.016 
1803.035 
1803.054 
1803.074 
1803.093 
1803.112 
1803.131 
1803.150 
1803.169 
1803.189 
1803.208 
1803.227 
1803.246 
1803.265 
1803.284 
1803.303 
1803.323 
1803.342 
1803.361 
1803.380 
1803.399 
1803.418 
1803.438 
1803.457 
1803.476 
1803.495 
1803.514 
1803.533 
1803.552 
1803.572 
1803.591 
1803.610 
1803.629 
1803.648 
1803.667 
1803.686 
1803.706 
1803.725 
1803.744 
1803.763 
1803.782 
1803.801 
1803.820 
1803.840 
1803.859 
1803.878 
1803.897 
1803.916 
1803.935 
1803.954 
1803.974 
1803.993 
1804.012 
1804.031 
1804.050 
1804.069 
1804.088 
1804.108 
1804.127 
1804.146 
1804.165 
1804.184 
1804.203 
1804.222 
1804.241 
1804.261 
1804.280 
1804.299 
1804.318 
1804.337 
1804.356 
1804.375 
1804.394 
1804.414 
1804.433 
1804.452 
1804.471 
1804.490 
1804.509 
1804.528 
1804.547 
1804.566 
1804.586 
1804.605 
1804.624 
1804.643 
1804.662 
1804.681 
1804.700 
1804.719 
1804.738 
1804.758 
1804.777 
1804.796 
1804.815 
1804.834 
1804.853 
1804.872 
1804.891 
1804.910 
1804.930 
1804.949 
1804.968 
1804.987 
1805.006 
1805.025 
1805.044 
1805.063 
1805.082 
1805.101 
1805.121 
1805.140 
1805.159 
1805.178 
1805.197 
1805.216 
1805.235 
1805.254 
1805.273 
1805.292 
1805.311 
1805.331 
1805.350 
1805.369 
1805.388 
1805.407 
1805.426 
1805.445 
1805.464 
1805.483 
1805.502 
1805.521 
1805.540 
1805.560 
1805.579 
1805.598 
1805.617 
1805.636 
1805.655 
1805.674 
1805.693 
1805.712 
1805.731 
1805.750 
1805.769 
1805.788 
1805.808 
1805.827 
1805.846 
1805.865 
1805.884 
1805.903 
1805.922 
1805.941 
1805.960 
1805.979 
1805.998 
1806.017 
1806.036 
1806.055 
1806.075 
1806.094 
1806.113 
1806.132 
1806.151 
1806.170 
1806.189 
1806.208 
1806.227 
1806.246 
1806.265 
1806.284 
1806.303 
1806.322 
1806.341 
1806.360 
1806.379 
1806.398 
1806.418 
1806.437 
1806.456 
1806.475 
1806.494 
1806.513 
1806.532 
1806.551 
1806.570 
1806.589 
1806.608 
1806.627 
1806.646 
1806.665 
1806.684 
1806.703 
1806.722 
1806.741 
1806.760 
1806.779 
1806.798 
1806.817 
1806.837 
1806.856 
1806.875 
1806.894 
1806.913 
1806.932 
1806.951 
1806.970 
1806.989 
1807.008 
1807.027 
1807.046 
1807.065 
1807.084 
1807.103 
1807.122 
1807.141 
1807.160 
1807.179 
1807.198 
1807.217 
1807.236 
1807.255 
1807.274 
1807.293 
1807.312 
1807.331 
1807.350 
1807.369 
1807.388 
1807.407 
1807.426 
1807.445 
1807.464 
1807.483 
1807.502 
1807.521 
1807.540 
1807.559 
1807.578 
1807.598 
1807.617 
1807.636 
1807.655 
1807.674 
1807.693 
1807.712 
1807.731 
1807.750 
1807.769 
1807.788 
1807.807 
1807.826 
1807.845 
1807.864 
1807.883 
1807.902 
1807.921 
1807.940 
1807.959 
1807.978 
1807.997 
1808.016 
1808.035 
1808.054 
1808.073 
1808.092 
1808.111 
1808.130 
1808.149 
1808.168 
1808.187 
1808.206 
1808.225 
1808.244 
1808.263 
1808.282 
1808.301 
1808.319 
1808.338 
1808.357 
1808.376 
1808.395 
1808.414 
1808.433 
1808.452 
1808.471 
1808.490 
1808.509 
1808.528 
1808.547 
1808.566 
1808.585 
1808.604 
1808.623 
1808.642 
1808.661 
1808.680 
1808.699 
1808.718 
1808.737 
1808.756 
1808.775 
1808.794 
1808.813 
1808.832 
1808.851 
1808.870 
1808.889 
1808.908 
1808.927 
1808.946 
1808.965 
1808.984 
1809.003 
1809.022 
1809.041 
1809.059 
1809.078 
1809.097 
1809.116 
1809.135 
1809.154 
1809.173 
1809.192 
1809.211 
1809.230 
1809.249 
1809.268 
1809.287 
1809.306 
1809.325 
1809.344 
1809.363 
1809.382 
1809.401 
1809.420 
1809.439 
1809.458 
1809.476 
1809.495 
1809.514 
1809.533 
1809.552 
1809.571 
1809.590 
1809.609 
1809.628 
1809.647 
1809.666 
1809.685 
1809.704 
1809.723 
1809.742 
1809.761 
1809.780 
1809.799 
1809.817 
1809.836 
1809.855 
1809.874 
1809.893 
1809.912 
1809.931 
1809.950 
1809.969 
1809.988 
1810.007 
1810.026 
1810.045 
1810.064 
1810.082 
1810.101 
1810.120 
1810.139 
1810.158 
1810.177 
1810.196 
1810.215 
1810.234 
1810.253 
1810.272 
1810.291 
1810.310 
1810.328 
1810.347 
1810.366 
1810.385 
1810.404 
1810.423 
1810.442 
1810.461 
1810.480 
1810.499 
1810.518 
1810.537 
1810.555 
1810.574 
1810.593 
1810.612 
1810.631 
1810.650 
1810.669 
1810.688 
1810.707 
1810.726 
1810.745 
1810.763 
1810.782 
1810.801 
1810.820 
1810.839 
1810.858 
1810.877 
1810.896 
1810.915 
1810.934 
1810.952 
1810.971 
1810.990 
1811.009 
1811.028 
1811.047 
1811.066 
1811.085 
1811.104 
1811.122 
1811.141 
1811.160 
1811.179 
1811.198 
1811.217 
1811.236 
1811.255 
1811.274 
1811.292 
1811.311 
1811.330 
1811.349 
1811.368 
1811.387 
1811.406 
1811.425 
1811.444 
1811.462 
1811.481 
1811.500 
1811.519 
1811.538 
1811.557 
1811.576 
1811.595 
1811.613 
1811.632 
1811.651 
1811.670 
1811.689 
1811.708 
1811.727 
1811.746 
1811.764 
1811.783 
1811.802 
1811.821 
1811.840 
1811.859 
1811.878 
1811.896 
1811.915 
1811.934 
1811.953 
1811.972 
1811.991 
1812.010 
1812.028 
1812.047 
1812.066 
1812.085 
1812.104 
1812.123 
1812.142 
1812.161 
1812.179 
1812.198 
1812.217 
1812.236 
1812.255 
1812.274 
1812.292 
1812.311 
1812.330 
1812.349 
1812.368 
1812.387 
1812.406 
1812.424 
1812.443 
1812.462 
1812.481 
1812.500 
1812.519 
1812.537 
1812.556 
1812.575 
1812.594 
1812.613 
1812.632 
1812.651 
1812.669 
1812.688 
1812.707 
1812.726 
1812.745 
1812.764 
1812.782 
1812.801 
1812.820 
1812.839 
1812.858 
1812.877 
1812.895 
1812.914 
1812.933 
1812.952 
1812.971 
1812.990 
1813.008 
1813.027 
1813.046 
1813.065 
1813.084 
1813.102 
1813.121 
1813.140 
1813.159 
1813.178 
1813.197 
1813.215 
1813.234 
1813.253 
1813.272 
1813.291 
1813.309 
1813.328 
1813.347 
1813.366 
1813.385 
1813.404 
1813.422 
1813.441 
1813.460 
1813.479 
1813.498 
1813.516 
1813.535 
1813.554 
1813.573 
1813.592 
1813.610 
1813.629 
1813.648 
1813.667 
1813.686 
1813.704 
1813.723 
1813.742 
1813.761 
1813.780 
1813.798 
1813.817 
1813.836 
1813.855 
1813.874 
1813.892 
1813.911 
1813.930 
1813.949 
1813.968 
1813.986 
1814.005 
1814.024 
1814.043 
1814.062 
1814.080 
1814.099 
1814.118 
1814.137 
1814.156 
1814.174 
1814.193 
1814.212 
1814.231 
1814.249 
1814.268 
1814.287 
1814.306 
1814.325 
1814.343 
1814.362 
1814.381 
1814.400 
1814.418 
1814.437 
1814.456 
1814.475 
1814.494 
1814.512 
1814.531 
1814.550 
1814.569 
1814.587 
1814.606 
1814.625 
1814.644 
1814.663 
1814.681 
1814.700 
1814.719 
1814.738 
1814.756 
1814.775 
1814.794 
1814.813 
1814.831 
1814.850 
1814.869 
1814.888 
1814.906 
1814.925 
1814.944 
1814.963 
1814.982 
1815.000 
1815.019 
1815.038 
1815.057 
1815.075 
1815.094 
1815.113 
1815.132 
1815.150 
1815.169 
1815.188 
1815.207 
1815.225 
1815.244 
1815.263 
1815.282 
1815.300 
1815.319 
1815.338 
1815.357 
1815.375 
1815.394 
1815.413 
1815.432 
1815.450 
1815.469 
1815.488 
1815.507 
1815.525 
1815.544 
1815.563 
1815.581 
1815.600 
1815.619 
1815.638 
1815.656 
1815.675 
1815.694 
1815.713 
1815.731 
1815.750 
1815.769 
1815.788 
1815.806 
1815.825 
1815.844 
1815.862 
1815.881 
1815.900 
1815.919 
1815.937 
1815.956 
1815.975 
1815.994 
1816.012 
1816.031 
1816.050 
1816.068 
1816.087 
1816.106 
1816.125 
1816.143 
1816.162 
1816.181 
1816.199 
1816.218 
1816.237 
1816.256 
1816.274 
1816.293 
1816.312 
1816.330 
1816.349 
1816.368 
1816.387 
1816.405 
1816.424 
1816.443 
1816.461 
1816.480 
1816.499 
1816.518 
1816.536 
1816.555 
1816.574 
1816.592 
1816.611 
1816.630 
1816.648 
1816.667 
1816.686 
1816.705 
1816.723 
1816.742 
1816.761 
1816.779 
1816.798 
1816.817 
1816.835 
1816.854 
1816.873 
1816.891 
1816.910 
1816.929 
1816.948 
1816.966 
1816.985 
1817.004 
1817.022 
1817.041 
1817.060 
1817.078 
1817.097 
1817.116 
1817.134 
1817.153 
1817.172 
1817.190 
1817.209 
1817.228 
1817.247 
1817.265 
1817.284 
1817.303 
1817.321 
1817.340 
1817.359 
1817.377 
1817.396 
1817.415 
1817.433 
1817.452 
1817.471 
1817.489 
1817.508 
1817.527 
1817.545 
1817.564 
1817.583 
1817.601 
1817.620 
1817.639 
1817.657 
1817.676 
1817.695 
1817.713 
1817.732 
1817.751 
1817.769 
1817.788 
1817.807 
1817.825 
1817.844 
1817.863 
1817.881 
1817.900 
1817.919 
1817.937 
1817.956 
1817.975 
1817.993 
1818.012 
1818.031 
1818.049 
1818.068 
1818.086 
1818.105 
1818.124 
1818.142 
1818.161 
1818.180 
1818.198 
1818.217 
1818.236 
1818.254 
1818.273 
1818.292 
1818.310 
1818.329 
1818.348 
1818.366 
1818.385 
1818.403 
1818.422 
1818.441 
1818.459 
1818.478 
1818.497 
1818.515 
1818.534 
1818.553 
1818.571 
1818.590 
1818.608 
1818.627 
1818.646 
1818.664 
1818.683 
1818.702 
1818.720 
1818.739 
1818.757 
1818.776 
1818.795 
1818.813 
1818.832 
1818.851 
1818.869 
1818.888 
1818.906 
1818.925 
1818.944 
1818.962 
1818.981 
1819.000 
1819.018 
1819.037 
1819.055 
1819.074 
1819.093 
1819.111 
1819.130 
1819.148 
1819.167 
1819.186 
1819.204 
1819.223 
1819.242 
1819.260 
1819.279 
1819.297 
1819.316 
1819.335 
1819.353 
1819.372 
1819.390 
1819.409 
1819.428 
1819.446 
1819.465 
1819.483 
1819.502 
1819.521 
1819.539 
1819.558 
1819.576 
1819.595 
1819.614 
1819.632 
1819.651 
1819.669 
1819.688 
1819.707 
1819.725 
1819.744 
1819.762 
1819.781 
1819.800 
1819.818 
1819.837 
1819.855 
1819.874 
1819.893 
1819.911 
1819.930 
1819.948 
1819.967 
1819.985 
1820.004 
1820.023 
1820.041 
1820.060 
1820.078 
1820.097 
1820.116 
1820.134 
1820.153 
1820.171 
1820.190 
1820.208 
1820.227 
1820.246 
1820.264 
1820.283 
1820.301 
1820.320 
1820.338 
1820.357 
1820.376 
1820.394 
1820.413 
1820.431 
1820.450 
1820.468 
1820.487 
1820.506 
1820.524 
1820.543 
1820.561 
1820.580 
1820.598 
1820.617 
1820.636 
1820.654 
1820.673 
1820.691 
1820.710 
1820.728 
1820.747 
1820.765 
1820.784 
1820.803 
1820.821 
1820.840 
1820.858 
1820.877 
1820.895 
1820.914 
1820.932 
1820.951 
1820.970 
1820.988 
1821.007 
1821.025 
1821.044 
1821.062 
1821.081 
1821.099 
1821.118 
1821.136 
1821.155 
1821.174 
1821.192 
1821.211 
1821.229 
1821.248 
1821.266 
1821.285 
1821.303 
1821.322 
1821.340 
1821.359 
1821.377 
1821.396 
1821.415 
1821.433 
1821.452 
1821.470 
1821.489 
1821.507 
1821.526 
1821.544 
1821.563 
1821.581 
1821.600 
1821.618 
1821.637 
1821.655 
1821.674 
1821.692 
1821.711 
1821.730 
1821.748 
1821.767 
1821.785 
1821.804 
1821.822 
1821.841 
1821.859 
1821.878 
1821.896 
1821.915 
1821.933 
1821.952 
1821.970 
1821.989 
1822.007 
1822.026 
1822.044 
1822.063 
1822.081 
1822.100 
1822.118 
1822.137 
1822.155 
1822.174 
1822.192 
1822.211 
