# Wavelength table for hrs,echb,33
1677.000 
1677.019 
1677.037 
1677.056 
1677.074 
1677.093 
1677.112 
1677.130 
1677.149 
1677.167 
1677.186 
1677.205 
1677.223 
1677.242 
1677.260 
1677.279 
1677.298 
1677.316 
1677.335 
1677.353 
1677.372 
1677.390 
1677.409 
1677.428 
1677.446 
1677.465 
1677.483 
1677.502 
1677.521 
1677.539 
1677.558 
1677.576 
1677.595 
1677.613 
1677.632 
1677.651 
1677.669 
1677.688 
1677.706 
1677.725 
1677.744 
1677.762 
1677.781 
1677.799 
1677.818 
1677.836 
1677.855 
1677.874 
1677.892 
1677.911 
1677.929 
1677.948 
1677.966 
1677.985 
1678.004 
1678.022 
1678.041 
1678.059 
1678.078 
1678.096 
1678.115 
1678.133 
1678.152 
1678.171 
1678.189 
1678.208 
1678.226 
1678.245 
1678.263 
1678.282 
1678.300 
1678.319 
1678.338 
1678.356 
1678.375 
1678.393 
1678.412 
1678.430 
1678.449 
1678.467 
1678.486 
1678.505 
1678.523 
1678.542 
1678.560 
1678.579 
1678.597 
1678.616 
1678.634 
1678.653 
1678.672 
1678.690 
1678.709 
1678.727 
1678.746 
1678.764 
1678.783 
1678.801 
1678.820 
1678.838 
1678.857 
1678.875 
1678.894 
1678.913 
1678.931 
1678.950 
1678.968 
1678.987 
1679.005 
1679.024 
1679.042 
1679.061 
1679.079 
1679.098 
1679.116 
1679.135 
1679.153 
1679.172 
1679.191 
1679.209 
1679.228 
1679.246 
1679.265 
1679.283 
1679.302 
1679.320 
1679.339 
1679.357 
1679.376 
1679.394 
1679.413 
1679.431 
1679.450 
1679.468 
1679.487 
1679.505 
1679.524 
1679.542 
1679.561 
1679.579 
1679.598 
1679.617 
1679.635 
1679.654 
1679.672 
1679.691 
1679.709 
1679.728 
1679.746 
1679.765 
1679.783 
1679.802 
1679.820 
1679.839 
1679.857 
1679.876 
1679.894 
1679.913 
1679.931 
1679.950 
1679.968 
1679.987 
1680.005 
1680.024 
1680.042 
1680.061 
1680.079 
1680.098 
1680.116 
1680.135 
1680.153 
1680.172 
1680.190 
1680.209 
1680.227 
1680.246 
1680.264 
1680.283 
1680.301 
1680.320 
1680.338 
1680.357 
1680.375 
1680.394 
1680.412 
1680.431 
1680.449 
1680.467 
1680.486 
1680.504 
1680.523 
1680.541 
1680.560 
1680.578 
1680.597 
1680.615 
1680.634 
1680.652 
1680.671 
1680.689 
1680.708 
1680.726 
1680.745 
1680.763 
1680.782 
1680.800 
1680.819 
1680.837 
1680.856 
1680.874 
1680.892 
1680.911 
1680.929 
1680.948 
1680.966 
1680.985 
1681.003 
1681.022 
1681.040 
1681.059 
1681.077 
1681.096 
1681.114 
1681.133 
1681.151 
1681.169 
1681.188 
1681.206 
1681.225 
1681.243 
1681.262 
1681.280 
1681.299 
1681.317 
1681.336 
1681.354 
1681.373 
1681.391 
1681.409 
1681.428 
1681.446 
1681.465 
1681.483 
1681.502 
1681.520 
1681.539 
1681.557 
1681.576 
1681.594 
1681.612 
1681.631 
1681.649 
1681.668 
1681.686 
1681.705 
1681.723 
1681.742 
1681.760 
1681.778 
1681.797 
1681.815 
1681.834 
1681.852 
1681.871 
1681.889 
1681.907 
1681.926 
1681.944 
1681.963 
1681.981 
1682.000 
1682.018 
1682.037 
1682.055 
1682.073 
1682.092 
1682.110 
1682.129 
1682.147 
1682.166 
1682.184 
1682.202 
1682.221 
1682.239 
1682.258 
1682.276 
1682.295 
1682.313 
1682.331 
1682.350 
1682.368 
1682.387 
1682.405 
1682.424 
1682.442 
1682.460 
1682.479 
1682.497 
1682.516 
1682.534 
1682.552 
1682.571 
1682.589 
1682.608 
1682.626 
1682.645 
1682.663 
1682.681 
1682.700 
1682.718 
1682.737 
1682.755 
1682.773 
1682.792 
1682.810 
1682.829 
1682.847 
1682.865 
1682.884 
1682.902 
1682.921 
1682.939 
1682.957 
1682.976 
1682.994 
1683.013 
1683.031 
1683.049 
1683.068 
1683.086 
1683.105 
1683.123 
1683.141 
1683.160 
1683.178 
1683.197 
1683.215 
1683.233 
1683.252 
1683.270 
1683.289 
1683.307 
1683.325 
1683.344 
1683.362 
1683.381 
1683.399 
1683.417 
1683.436 
1683.454 
1683.472 
1683.491 
1683.509 
1683.528 
1683.546 
1683.564 
1683.583 
1683.601 
1683.620 
1683.638 
1683.656 
1683.675 
1683.693 
1683.711 
1683.730 
1683.748 
1683.767 
1683.785 
1683.803 
1683.822 
1683.840 
1683.858 
1683.877 
1683.895 
1683.914 
1683.932 
1683.950 
1683.969 
1683.987 
1684.005 
1684.024 
1684.042 
1684.060 
1684.079 
1684.097 
1684.116 
1684.134 
1684.152 
1684.171 
1684.189 
1684.207 
1684.226 
1684.244 
1684.262 
1684.281 
1684.299 
1684.318 
1684.336 
1684.354 
1684.373 
1684.391 
1684.409 
1684.428 
1684.446 
1684.464 
1684.483 
1684.501 
1684.519 
1684.538 
1684.556 
1684.575 
1684.593 
1684.611 
1684.630 
1684.648 
1684.666 
1684.685 
1684.703 
1684.721 
1684.740 
1684.758 
1684.776 
1684.795 
1684.813 
1684.831 
1684.850 
1684.868 
1684.886 
1684.905 
1684.923 
1684.941 
1684.960 
1684.978 
1684.996 
1685.015 
1685.033 
1685.051 
1685.070 
1685.088 
1685.106 
1685.125 
1685.143 
1685.161 
1685.180 
1685.198 
1685.216 
1685.235 
1685.253 
1685.271 
1685.290 
1685.308 
1685.326 
1685.345 
1685.363 
1685.381 
1685.400 
1685.418 
1685.436 
1685.455 
1685.473 
1685.491 
1685.509 
1685.528 
1685.546 
1685.564 
1685.583 
1685.601 
1685.619 
1685.638 
1685.656 
1685.674 
1685.693 
1685.711 
1685.729 
1685.748 
1685.766 
1685.784 
1685.802 
1685.821 
1685.839 
1685.857 
1685.876 
1685.894 
1685.912 
1685.931 
1685.949 
1685.967 
1685.986 
1686.004 
1686.022 
1686.040 
1686.059 
1686.077 
1686.095 
1686.114 
1686.132 
1686.150 
1686.169 
1686.187 
1686.205 
1686.223 
1686.242 
1686.260 
1686.278 
1686.297 
1686.315 
1686.333 
1686.351 
1686.370 
1686.388 
1686.406 
1686.425 
1686.443 
1686.461 
1686.479 
1686.498 
1686.516 
1686.534 
1686.553 
1686.571 
1686.589 
1686.607 
1686.626 
1686.644 
1686.662 
1686.681 
1686.699 
1686.717 
1686.735 
1686.754 
1686.772 
1686.790 
1686.808 
1686.827 
1686.845 
1686.863 
1686.882 
1686.900 
1686.918 
1686.936 
1686.955 
1686.973 
1686.991 
1687.009 
1687.028 
1687.046 
1687.064 
1687.083 
1687.101 
1687.119 
1687.137 
1687.156 
1687.174 
1687.192 
1687.210 
1687.229 
1687.247 
1687.265 
1687.283 
1687.302 
1687.320 
1687.338 
1687.356 
1687.375 
1687.393 
1687.411 
1687.429 
1687.448 
1687.466 
1687.484 
1687.502 
1687.521 
1687.539 
1687.557 
1687.575 
1687.594 
1687.612 
1687.630 
1687.648 
1687.667 
1687.685 
1687.703 
1687.721 
1687.740 
1687.758 
1687.776 
1687.794 
1687.813 
1687.831 
1687.849 
1687.867 
1687.886 
1687.904 
1687.922 
1687.940 
1687.959 
1687.977 
1687.995 
1688.013 
1688.031 
1688.050 
1688.068 
1688.086 
1688.104 
1688.123 
1688.141 
1688.159 
1688.177 
1688.196 
1688.214 
1688.232 
1688.250 
1688.268 
1688.287 
1688.305 
1688.323 
1688.341 
1688.360 
1688.378 
1688.396 
1688.414 
1688.432 
1688.451 
1688.469 
1688.487 
1688.505 
1688.524 
1688.542 
1688.560 
1688.578 
1688.596 
1688.615 
1688.633 
1688.651 
1688.669 
1688.687 
1688.706 
1688.724 
1688.742 
1688.760 
1688.779 
1688.797 
1688.815 
1688.833 
1688.851 
1688.870 
1688.888 
1688.906 
1688.924 
1688.942 
1688.961 
1688.979 
1688.997 
1689.015 
1689.033 
1689.052 
1689.070 
1689.088 
1689.106 
1689.124 
1689.143 
1689.161 
1689.179 
1689.197 
1689.215 
1689.234 
1689.252 
1689.270 
1689.288 
1689.306 
1689.324 
1689.343 
1689.361 
1689.379 
1689.397 
1689.415 
1689.434 
1689.452 
1689.470 
1689.488 
1689.506 
1689.525 
1689.543 
1689.561 
1689.579 
1689.597 
1689.615 
1689.634 
1689.652 
1689.670 
1689.688 
1689.706 
1689.725 
1689.743 
1689.761 
1689.779 
1689.797 
1689.815 
1689.834 
1689.852 
1689.870 
1689.888 
1689.906 
1689.924 
1689.943 
1689.961 
1689.979 
1689.997 
1690.015 
1690.033 
1690.052 
1690.070 
1690.088 
1690.106 
1690.124 
1690.142 
1690.161 
1690.179 
1690.197 
1690.215 
1690.233 
1690.251 
1690.270 
1690.288 
1690.306 
1690.324 
1690.342 
1690.360 
1690.378 
1690.397 
1690.415 
1690.433 
1690.451 
1690.469 
1690.487 
1690.506 
1690.524 
1690.542 
1690.560 
1690.578 
1690.596 
1690.614 
1690.633 
1690.651 
1690.669 
1690.687 
1690.705 
1690.723 
1690.741 
1690.760 
1690.778 
1690.796 
1690.814 
1690.832 
1690.850 
1690.868 
1690.887 
1690.905 
1690.923 
1690.941 
1690.959 
1690.977 
1690.995 
1691.013 
1691.032 
1691.050 
1691.068 
1691.086 
1691.104 
1691.122 
1691.140 
1691.158 
1691.177 
1691.195 
1691.213 
1691.231 
1691.249 
1691.267 
1691.285 
1691.303 
1691.322 
1691.340 
1691.358 
1691.376 
1691.394 
1691.412 
1691.430 
1691.448 
1691.467 
1691.485 
1691.503 
1691.521 
1691.539 
1691.557 
1691.575 
1691.593 
1691.611 
1691.630 
1691.648 
1691.666 
1691.684 
1691.702 
1691.720 
1691.738 
1691.756 
1691.774 
1691.793 
1691.811 
1691.829 
1691.847 
1691.865 
1691.883 
1691.901 
1691.919 
1691.937 
1691.956 
1691.974 
1691.992 
1692.010 
1692.028 
1692.046 
1692.064 
1692.082 
1692.100 
1692.118 
1692.136 
1692.155 
1692.173 
1692.191 
1692.209 
1692.227 
1692.245 
1692.263 
1692.281 
1692.299 
1692.317 
1692.335 
1692.354 
1692.372 
1692.390 
1692.408 
1692.426 
1692.444 
1692.462 
1692.480 
1692.498 
1692.516 
1692.534 
1692.553 
1692.571 
1692.589 
1692.607 
1692.625 
1692.643 
1692.661 
1692.679 
1692.697 
1692.715 
1692.733 
1692.751 
1692.769 
1692.787 
1692.806 
1692.824 
1692.842 
1692.860 
1692.878 
1692.896 
1692.914 
1692.932 
1692.950 
1692.968 
1692.986 
1693.004 
1693.022 
1693.040 
1693.059 
1693.077 
1693.095 
1693.113 
1693.131 
1693.149 
1693.167 
1693.185 
1693.203 
1693.221 
1693.239 
1693.257 
1693.275 
1693.293 
1693.311 
1693.329 
1693.347 
1693.366 
1693.384 
1693.402 
1693.420 
1693.438 
1693.456 
1693.474 
1693.492 
1693.510 
1693.528 
1693.546 
1693.564 
1693.582 
1693.600 
1693.618 
1693.636 
1693.654 
1693.672 
1693.690 
1693.708 
1693.726 
1693.744 
1693.763 
1693.781 
1693.799 
1693.817 
1693.835 
1693.853 
1693.871 
1693.889 
1693.907 
1693.925 
1693.943 
1693.961 
1693.979 
1693.997 
1694.015 
1694.033 
1694.051 
1694.069 
1694.087 
1694.105 
1694.123 
1694.141 
1694.159 
1694.177 
1694.195 
1694.213 
1694.231 
1694.249 
1694.267 
1694.285 
1694.303 
1694.321 
1694.339 
1694.357 
1694.376 
1694.394 
1694.412 
1694.430 
1694.448 
1694.466 
1694.484 
1694.502 
1694.520 
1694.538 
1694.556 
1694.574 
1694.592 
1694.610 
1694.628 
1694.646 
1694.664 
1694.682 
1694.700 
1694.718 
1694.736 
1694.754 
1694.772 
1694.790 
1694.808 
1694.826 
1694.844 
1694.862 
1694.880 
1694.898 
1694.916 
1694.934 
1694.952 
1694.970 
1694.988 
1695.006 
1695.024 
1695.042 
1695.060 
1695.078 
1695.096 
1695.114 
1695.132 
1695.150 
1695.168 
1695.186 
1695.204 
1695.222 
1695.240 
1695.258 
1695.276 
1695.294 
1695.312 
1695.330 
1695.348 
1695.366 
1695.384 
1695.402 
1695.420 
1695.438 
1695.456 
1695.473 
1695.491 
1695.509 
1695.527 
1695.545 
1695.563 
1695.581 
1695.599 
1695.617 
1695.635 
1695.653 
1695.671 
1695.689 
1695.707 
1695.725 
1695.743 
1695.761 
1695.779 
1695.797 
1695.815 
1695.833 
1695.851 
1695.869 
1695.887 
1695.905 
1695.923 
1695.941 
1695.959 
1695.977 
1695.995 
1696.013 
1696.031 
1696.049 
1696.067 
1696.085 
1696.102 
1696.120 
1696.138 
1696.156 
1696.174 
1696.192 
1696.210 
1696.228 
1696.246 
1696.264 
1696.282 
1696.300 
1696.318 
1696.336 
1696.354 
1696.372 
1696.390 
1696.408 
1696.426 
1696.444 
1696.462 
1696.479 
1696.497 
1696.515 
1696.533 
1696.551 
1696.569 
1696.587 
1696.605 
1696.623 
1696.641 
1696.659 
1696.677 
1696.695 
1696.713 
1696.731 
1696.749 
1696.767 
1696.784 
1696.802 
1696.820 
1696.838 
1696.856 
1696.874 
1696.892 
1696.910 
1696.928 
1696.946 
1696.964 
1696.982 
1697.000 
1697.018 
1697.036 
1697.053 
1697.071 
1697.089 
1697.107 
1697.125 
1697.143 
1697.161 
1697.179 
1697.197 
1697.215 
1697.233 
1697.251 
1697.269 
1697.286 
1697.304 
1697.322 
1697.340 
1697.358 
1697.376 
1697.394 
1697.412 
1697.430 
1697.448 
1697.466 
1697.484 
1697.501 
1697.519 
1697.537 
1697.555 
1697.573 
1697.591 
1697.609 
1697.627 
1697.645 
1697.663 
1697.681 
1697.698 
1697.716 
1697.734 
1697.752 
1697.770 
1697.788 
1697.806 
1697.824 
1697.842 
1697.860 
1697.877 
1697.895 
1697.913 
1697.931 
1697.949 
1697.967 
1697.985 
1698.003 
1698.021 
1698.039 
1698.056 
1698.074 
1698.092 
1698.110 
1698.128 
1698.146 
1698.164 
1698.182 
1698.200 
1698.217 
1698.235 
1698.253 
1698.271 
1698.289 
1698.307 
1698.325 
1698.343 
1698.361 
1698.378 
1698.396 
1698.414 
1698.432 
1698.450 
1698.468 
1698.486 
1698.504 
1698.521 
1698.539 
1698.557 
1698.575 
1698.593 
1698.611 
1698.629 
1698.647 
1698.664 
1698.682 
1698.700 
1698.718 
1698.736 
1698.754 
1698.772 
1698.790 
1698.807 
1698.825 
1698.843 
1698.861 
1698.879 
1698.897 
1698.915 
1698.932 
1698.950 
1698.968 
1698.986 
1699.004 
1699.022 
1699.040 
1699.057 
1699.075 
1699.093 
1699.111 
1699.129 
1699.147 
1699.165 
1699.182 
1699.200 
1699.218 
1699.236 
1699.254 
1699.272 
1699.290 
1699.307 
1699.325 
1699.343 
1699.361 
1699.379 
1699.397 
1699.415 
1699.432 
1699.450 
1699.468 
1699.486 
1699.504 
1699.522 
1699.539 
1699.557 
1699.575 
1699.593 
1699.611 
1699.629 
1699.646 
1699.664 
1699.682 
1699.700 
1699.718 
1699.736 
1699.753 
1699.771 
1699.789 
1699.807 
1699.825 
1699.843 
1699.860 
1699.878 
1699.896 
1699.914 
1699.932 
1699.950 
1699.967 
1699.985 
1700.003 
1700.021 
1700.039 
1700.057 
1700.074 
1700.092 
1700.110 
1700.128 
1700.146 
1700.164 
1700.181 
1700.199 
1700.217 
1700.235 
1700.253 
1700.270 
1700.288 
1700.306 
1700.324 
1700.342 
1700.360 
1700.377 
1700.395 
1700.413 
1700.431 
1700.449 
1700.466 
1700.484 
1700.502 
1700.520 
1700.538 
1700.555 
1700.573 
1700.591 
1700.609 
1700.627 
1700.644 
1700.662 
1700.680 
1700.698 
1700.716 
1700.733 
1700.751 
1700.769 
1700.787 
1700.805 
1700.822 
1700.840 
1700.858 
1700.876 
1700.894 
1700.911 
1700.929 
1700.947 
1700.965 
1700.983 
1701.000 
1701.018 
1701.036 
1701.054 
1701.072 
1701.089 
1701.107 
1701.125 
1701.143 
1701.161 
1701.178 
1701.196 
1701.214 
1701.232 
1701.249 
1701.267 
1701.285 
1701.303 
1701.321 
1701.338 
1701.356 
1701.374 
1701.392 
1701.409 
1701.427 
1701.445 
1701.463 
1701.481 
1701.498 
1701.516 
1701.534 
1701.552 
1701.569 
1701.587 
1701.605 
1701.623 
1701.641 
1701.658 
1701.676 
1701.694 
1701.712 
1701.729 
1701.747 
1701.765 
1701.783 
1701.800 
1701.818 
1701.836 
1701.854 
1701.871 
1701.889 
1701.907 
1701.925 
1701.943 
1701.960 
1701.978 
1701.996 
1702.014 
1702.031 
1702.049 
1702.067 
1702.085 
1702.102 
1702.120 
1702.138 
1702.156 
1702.173 
1702.191 
1702.209 
1702.227 
1702.244 
1702.262 
1702.280 
1702.298 
1702.315 
1702.333 
1702.351 
1702.369 
1702.386 
1702.404 
1702.422 
1702.440 
1702.457 
1702.475 
1702.493 
1702.511 
1702.528 
1702.546 
1702.564 
1702.581 
1702.599 
1702.617 
1702.635 
1702.652 
1702.670 
1702.688 
1702.706 
1702.723 
1702.741 
1702.759 
1702.777 
1702.794 
1702.812 
1702.830 
1702.847 
1702.865 
1702.883 
1702.901 
1702.918 
1702.936 
1702.954 
1702.972 
1702.989 
1703.007 
1703.025 
1703.042 
1703.060 
1703.078 
1703.096 
1703.113 
1703.131 
1703.149 
1703.166 
1703.184 
1703.202 
1703.220 
1703.237 
1703.255 
1703.273 
1703.290 
1703.308 
1703.326 
1703.344 
1703.361 
1703.379 
1703.397 
1703.414 
1703.432 
1703.450 
1703.468 
1703.485 
1703.503 
1703.521 
1703.538 
1703.556 
1703.574 
1703.592 
1703.609 
1703.627 
1703.645 
1703.662 
1703.680 
1703.698 
1703.715 
1703.733 
1703.751 
1703.769 
1703.786 
1703.804 
1703.822 
1703.839 
1703.857 
1703.875 
1703.892 
1703.910 
1703.928 
1703.945 
1703.963 
1703.981 
1703.999 
1704.016 
1704.034 
1704.052 
1704.069 
1704.087 
1704.105 
1704.122 
1704.140 
1704.158 
1704.175 
1704.193 
1704.211 
1704.228 
1704.246 
1704.264 
1704.281 
1704.299 
1704.317 
1704.334 
1704.352 
1704.370 
1704.388 
1704.405 
1704.423 
1704.441 
1704.458 
1704.476 
1704.494 
1704.511 
1704.529 
1704.547 
1704.564 
1704.582 
1704.600 
1704.617 
1704.635 
1704.653 
1704.670 
1704.688 
1704.706 
1704.723 
1704.741 
1704.759 
1704.776 
1704.794 
1704.812 
1704.829 
1704.847 
1704.864 
1704.882 
1704.900 
1704.917 
1704.935 
1704.953 
1704.970 
1704.988 
1705.006 
1705.023 
1705.041 
1705.059 
1705.076 
1705.094 
1705.112 
1705.129 
1705.147 
1705.165 
1705.182 
1705.200 
1705.218 
1705.235 
1705.253 
1705.270 
1705.288 
1705.306 
1705.323 
1705.341 
1705.359 
1705.376 
1705.394 
1705.412 
1705.429 
1705.447 
1705.465 
1705.482 
1705.500 
1705.517 
1705.535 
1705.553 
1705.570 
1705.588 
1705.606 
1705.623 
1705.641 
1705.659 
1705.676 
1705.694 
1705.711 
1705.729 
1705.747 
1705.764 
1705.782 
1705.800 
1705.817 
1705.835 
1705.852 
1705.870 
1705.888 
1705.905 
1705.923 
1705.941 
1705.958 
1705.976 
1705.993 
1706.011 
1706.029 
1706.046 
1706.064 
1706.081 
1706.099 
1706.117 
1706.134 
1706.152 
1706.170 
1706.187 
1706.205 
1706.222 
1706.240 
1706.258 
1706.275 
1706.293 
1706.310 
1706.328 
1706.346 
1706.363 
1706.381 
1706.398 
1706.416 
1706.434 
1706.451 
1706.469 
1706.486 
1706.504 
1706.522 
1706.539 
1706.557 
1706.574 
1706.592 
1706.610 
1706.627 
1706.645 
1706.662 
1706.680 
1706.698 
1706.715 
1706.733 
1706.750 
1706.768 
1706.786 
1706.803 
1706.821 
1706.838 
1706.856 
1706.874 
1706.891 
1706.909 
1706.926 
1706.944 
1706.961 
1706.979 
1706.997 
1707.014 
1707.032 
1707.049 
1707.067 
1707.085 
1707.102 
1707.120 
1707.137 
1707.155 
1707.172 
1707.190 
1707.208 
1707.225 
1707.243 
1707.260 
1707.278 
1707.296 
1707.313 
1707.331 
1707.348 
1707.366 
1707.383 
1707.401 
1707.419 
1707.436 
1707.454 
1707.471 
1707.489 
1707.506 
1707.524 
1707.541 
1707.559 
1707.577 
1707.594 
1707.612 
1707.629 
1707.647 
1707.664 
1707.682 
1707.700 
1707.717 
1707.735 
1707.752 
1707.770 
1707.787 
1707.805 
1707.822 
1707.840 
1707.858 
1707.875 
1707.893 
1707.910 
1707.928 
1707.945 
1707.963 
1707.980 
1707.998 
1708.016 
1708.033 
1708.051 
1708.068 
1708.086 
1708.103 
1708.121 
1708.138 
1708.156 
1708.173 
1708.191 
1708.209 
1708.226 
1708.244 
1708.261 
1708.279 
1708.296 
1708.314 
1708.331 
1708.349 
1708.366 
1708.384 
1708.401 
1708.419 
1708.437 
1708.454 
1708.472 
1708.489 
1708.507 
1708.524 
1708.542 
1708.559 
1708.577 
1708.594 
1708.612 
1708.629 
1708.647 
1708.664 
1708.682 
1708.699 
1708.717 
1708.734 
1708.752 
1708.770 
1708.787 
1708.805 
1708.822 
1708.840 
1708.857 
1708.875 
1708.892 
1708.910 
1708.927 
1708.945 
1708.962 
1708.980 
1708.997 
1709.015 
1709.032 
1709.050 
1709.067 
1709.085 
1709.102 
1709.120 
1709.137 
1709.155 
1709.172 
1709.190 
1709.207 
1709.225 
1709.242 
1709.260 
1709.277 
1709.295 
1709.312 
1709.330 
1709.347 
1709.365 
1709.382 
1709.400 
1709.417 
1709.435 
1709.452 
1709.470 
1709.487 
1709.505 
1709.522 
1709.540 
1709.557 
1709.575 
1709.592 
1709.610 
1709.627 
1709.645 
1709.662 
1709.680 
1709.697 
1709.715 
1709.732 
1709.750 
1709.767 
1709.785 
1709.802 
1709.820 
1709.837 
1709.855 
1709.872 
1709.890 
1709.907 
1709.925 
1709.942 
1709.960 
1709.977 
1709.995 
1710.012 
1710.030 
1710.047 
1710.065 
1710.082 
1710.099 
1710.117 
1710.134 
1710.152 
1710.169 
1710.187 
1710.204 
1710.222 
1710.239 
1710.257 
1710.274 
1710.292 
1710.309 
1710.327 
1710.344 
1710.362 
1710.379 
1710.396 
1710.414 
1710.431 
1710.449 
1710.466 
1710.484 
1710.501 
1710.519 
1710.536 
1710.554 
1710.571 
1710.589 
1710.606 
1710.623 
1710.641 
1710.658 
1710.676 
1710.693 
1710.711 
1710.728 
1710.746 
1710.763 
1710.781 
1710.798 
1710.815 
1710.833 
1710.850 
1710.868 
1710.885 
1710.903 
1710.920 
1710.938 
1710.955 
1710.972 
1710.990 
1711.007 
1711.025 
1711.042 
1711.060 
1711.077 
1711.095 
1711.112 
1711.129 
1711.147 
1711.164 
1711.182 
1711.199 
1711.217 
1711.234 
1711.252 
1711.269 
1711.286 
1711.304 
1711.321 
1711.339 
1711.356 
1711.374 
1711.391 
1711.408 
1711.426 
1711.443 
1711.461 
1711.478 
1711.496 
1711.513 
1711.530 
1711.548 
1711.565 
1711.583 
1711.600 
1711.618 
1711.635 
1711.652 
1711.670 
1711.687 
1711.705 
1711.722 
1711.739 
1711.757 
1711.774 
1711.792 
1711.809 
1711.827 
1711.844 
1711.861 
1711.879 
1711.896 
1711.914 
1711.931 
1711.948 
1711.966 
1711.983 
1712.001 
1712.018 
1712.035 
1712.053 
1712.070 
1712.088 
1712.105 
1712.123 
1712.140 
1712.157 
1712.175 
1712.192 
1712.210 
1712.227 
1712.244 
1712.262 
1712.279 
1712.297 
1712.314 
1712.331 
1712.349 
1712.366 
1712.384 
1712.401 
1712.418 
1712.436 
1712.453 
1712.470 
1712.488 
1712.505 
1712.523 
1712.540 
1712.557 
1712.575 
1712.592 
1712.610 
1712.627 
1712.644 
1712.662 
1712.679 
1712.697 
1712.714 
1712.731 
1712.749 
1712.766 
1712.783 
1712.801 
1712.818 
1712.836 
1712.853 
1712.870 
1712.888 
