# Wavelength table for hrs,echa,22
2497.000 
2497.028 
2497.057 
2497.085 
2497.114 
2497.142 
2497.170 
2497.199 
2497.227 
2497.256 
2497.284 
2497.312 
2497.341 
2497.369 
2497.398 
2497.426 
2497.454 
2497.483 
2497.511 
2497.539 
2497.568 
2497.596 
2497.625 
2497.653 
2497.681 
2497.710 
2497.738 
2497.766 
2497.795 
2497.823 
2497.852 
2497.880 
2497.908 
2497.937 
2497.965 
2497.993 
2498.022 
2498.050 
2498.079 
2498.107 
2498.135 
2498.164 
2498.192 
2498.220 
2498.249 
2498.277 
2498.305 
2498.334 
2498.362 
2498.390 
2498.419 
2498.447 
2498.476 
2498.504 
2498.532 
2498.561 
2498.589 
2498.617 
2498.646 
2498.674 
2498.702 
2498.731 
2498.759 
2498.787 
2498.816 
2498.844 
2498.872 
2498.901 
2498.929 
2498.957 
2498.986 
2499.014 
2499.042 
2499.071 
2499.099 
2499.127 
2499.156 
2499.184 
2499.212 
2499.241 
2499.269 
2499.297 
2499.326 
2499.354 
2499.382 
2499.411 
2499.439 
2499.467 
2499.496 
2499.524 
2499.552 
2499.581 
2499.609 
2499.637 
2499.665 
2499.694 
2499.722 
2499.750 
2499.779 
2499.807 
2499.835 
2499.864 
2499.892 
2499.920 
2499.949 
2499.977 
2500.005 
2500.033 
2500.062 
2500.090 
2500.118 
2500.147 
2500.175 
2500.203 
2500.232 
2500.260 
2500.288 
2500.316 
2500.345 
2500.373 
2500.401 
2500.430 
2500.458 
2500.486 
2500.514 
2500.543 
2500.571 
2500.599 
2500.628 
2500.656 
2500.684 
2500.712 
2500.741 
2500.769 
2500.797 
2500.826 
2500.854 
2500.882 
2500.910 
2500.939 
2500.967 
2500.995 
2501.023 
2501.052 
2501.080 
2501.108 
2501.136 
2501.165 
2501.193 
2501.221 
2501.250 
2501.278 
2501.306 
2501.334 
2501.363 
2501.391 
2501.419 
2501.447 
2501.476 
2501.504 
2501.532 
2501.560 
2501.589 
2501.617 
2501.645 
2501.673 
2501.702 
2501.730 
2501.758 
2501.786 
2501.815 
2501.843 
2501.871 
2501.899 
2501.928 
2501.956 
2501.984 
2502.012 
2502.040 
2502.069 
2502.097 
2502.125 
2502.153 
2502.182 
2502.210 
2502.238 
2502.266 
2502.295 
2502.323 
2502.351 
2502.379 
2502.407 
2502.436 
2502.464 
2502.492 
2502.520 
2502.549 
2502.577 
2502.605 
2502.633 
2502.661 
2502.690 
2502.718 
2502.746 
2502.774 
2502.802 
2502.831 
2502.859 
2502.887 
2502.915 
2502.943 
2502.972 
2503.000 
2503.028 
2503.056 
2503.084 
2503.113 
2503.141 
2503.169 
2503.197 
2503.225 
2503.254 
2503.282 
2503.310 
2503.338 
2503.366 
2503.395 
2503.423 
2503.451 
2503.479 
2503.507 
2503.536 
2503.564 
2503.592 
2503.620 
2503.648 
2503.676 
2503.705 
2503.733 
2503.761 
2503.789 
2503.817 
2503.846 
2503.874 
2503.902 
2503.930 
2503.958 
2503.986 
2504.015 
2504.043 
2504.071 
2504.099 
2504.127 
2504.155 
2504.184 
2504.212 
2504.240 
2504.268 
2504.296 
2504.324 
2504.353 
2504.381 
2504.409 
2504.437 
2504.465 
2504.493 
2504.521 
2504.550 
2504.578 
2504.606 
2504.634 
2504.662 
2504.690 
2504.718 
2504.747 
2504.775 
2504.803 
2504.831 
2504.859 
2504.887 
2504.915 
2504.944 
2504.972 
2505.000 
2505.028 
2505.056 
2505.084 
2505.112 
2505.141 
2505.169 
2505.197 
2505.225 
2505.253 
2505.281 
2505.309 
2505.337 
2505.366 
2505.394 
2505.422 
2505.450 
2505.478 
2505.506 
2505.534 
2505.562 
2505.591 
2505.619 
2505.647 
2505.675 
2505.703 
2505.731 
2505.759 
2505.787 
2505.815 
2505.844 
2505.872 
2505.900 
2505.928 
2505.956 
2505.984 
2506.012 
2506.040 
2506.068 
2506.097 
2506.125 
2506.153 
2506.181 
2506.209 
2506.237 
2506.265 
2506.293 
2506.321 
2506.349 
2506.377 
2506.406 
2506.434 
2506.462 
2506.490 
2506.518 
2506.546 
2506.574 
2506.602 
2506.630 
2506.658 
2506.686 
2506.714 
2506.743 
2506.771 
2506.799 
2506.827 
2506.855 
2506.883 
2506.911 
2506.939 
2506.967 
2506.995 
2507.023 
2507.051 
2507.079 
2507.108 
2507.136 
2507.164 
2507.192 
2507.220 
2507.248 
2507.276 
2507.304 
2507.332 
2507.360 
2507.388 
2507.416 
2507.444 
2507.472 
2507.500 
2507.528 
2507.556 
2507.585 
2507.613 
2507.641 
2507.669 
2507.697 
2507.725 
2507.753 
2507.781 
2507.809 
2507.837 
2507.865 
2507.893 
2507.921 
2507.949 
2507.977 
2508.005 
2508.033 
2508.061 
2508.089 
2508.117 
2508.145 
2508.173 
2508.201 
2508.229 
2508.257 
2508.285 
2508.314 
2508.342 
2508.370 
2508.398 
2508.426 
2508.454 
2508.482 
2508.510 
2508.538 
2508.566 
2508.594 
2508.622 
2508.650 
2508.678 
2508.706 
2508.734 
2508.762 
2508.790 
2508.818 
2508.846 
2508.874 
2508.902 
2508.930 
2508.958 
2508.986 
2509.014 
2509.042 
2509.070 
2509.098 
2509.126 
2509.154 
2509.182 
2509.210 
2509.238 
2509.266 
2509.294 
2509.322 
2509.350 
2509.378 
2509.406 
2509.434 
2509.462 
2509.490 
2509.518 
2509.546 
2509.574 
2509.602 
2509.630 
2509.658 
2509.686 
2509.714 
2509.742 
2509.770 
2509.798 
2509.826 
2509.854 
2509.882 
2509.910 
2509.937 
2509.965 
2509.993 
2510.021 
2510.049 
2510.077 
2510.105 
2510.133 
2510.161 
2510.189 
2510.217 
2510.245 
2510.273 
2510.301 
2510.329 
2510.357 
2510.385 
2510.413 
2510.441 
2510.469 
2510.497 
2510.525 
2510.553 
2510.581 
2510.609 
2510.637 
2510.664 
2510.692 
2510.720 
2510.748 
2510.776 
2510.804 
2510.832 
2510.860 
2510.888 
2510.916 
2510.944 
2510.972 
2511.000 
2511.028 
2511.056 
2511.084 
2511.112 
2511.139 
2511.167 
2511.195 
2511.223 
2511.251 
2511.279 
2511.307 
2511.335 
2511.363 
2511.391 
2511.419 
2511.447 
2511.475 
2511.502 
2511.530 
2511.558 
2511.586 
2511.614 
2511.642 
2511.670 
2511.698 
2511.726 
2511.754 
2511.782 
2511.810 
2511.837 
2511.865 
2511.893 
2511.921 
2511.949 
2511.977 
2512.005 
2512.033 
2512.061 
2512.089 
2512.117 
2512.144 
2512.172 
2512.200 
2512.228 
2512.256 
2512.284 
2512.312 
2512.340 
2512.368 
2512.395 
2512.423 
2512.451 
2512.479 
2512.507 
2512.535 
2512.563 
2512.591 
2512.619 
2512.646 
2512.674 
2512.702 
2512.730 
2512.758 
2512.786 
2512.814 
2512.842 
2512.869 
2512.897 
2512.925 
2512.953 
2512.981 
2513.009 
2513.037 
2513.065 
2513.092 
2513.120 
2513.148 
2513.176 
2513.204 
2513.232 
2513.260 
2513.287 
2513.315 
2513.343 
2513.371 
2513.399 
2513.427 
2513.455 
2513.482 
2513.510 
2513.538 
2513.566 
2513.594 
2513.622 
2513.650 
2513.677 
2513.705 
2513.733 
2513.761 
2513.789 
2513.817 
2513.845 
2513.872 
2513.900 
2513.928 
2513.956 
2513.984 
2514.012 
2514.039 
2514.067 
2514.095 
2514.123 
2514.151 
2514.179 
2514.206 
2514.234 
2514.262 
2514.290 
2514.318 
2514.346 
2514.373 
2514.401 
2514.429 
2514.457 
2514.485 
2514.512 
2514.540 
2514.568 
2514.596 
2514.624 
2514.652 
2514.679 
2514.707 
2514.735 
2514.763 
2514.791 
2514.818 
2514.846 
2514.874 
2514.902 
2514.930 
2514.957 
2514.985 
2515.013 
2515.041 
2515.069 
2515.096 
2515.124 
2515.152 
2515.180 
2515.208 
2515.235 
2515.263 
2515.291 
2515.319 
2515.347 
2515.374 
2515.402 
2515.430 
2515.458 
2515.486 
2515.513 
2515.541 
2515.569 
2515.597 
2515.625 
2515.652 
2515.680 
2515.708 
2515.736 
2515.763 
2515.791 
2515.819 
2515.847 
2515.875 
2515.902 
2515.930 
2515.958 
2515.986 
2516.013 
2516.041 
2516.069 
2516.097 
2516.124 
2516.152 
2516.180 
2516.208 
2516.235 
2516.263 
2516.291 
2516.319 
2516.347 
2516.374 
2516.402 
2516.430 
2516.458 
2516.485 
2516.513 
2516.541 
2516.569 
2516.596 
2516.624 
2516.652 
2516.680 
2516.707 
2516.735 
2516.763 
2516.791 
2516.818 
2516.846 
2516.874 
2516.902 
2516.929 
2516.957 
2516.985 
2517.012 
2517.040 
2517.068 
2517.096 
2517.123 
2517.151 
2517.179 
2517.207 
2517.234 
2517.262 
2517.290 
2517.318 
2517.345 
2517.373 
2517.401 
2517.428 
2517.456 
2517.484 
2517.512 
2517.539 
2517.567 
2517.595 
2517.622 
2517.650 
2517.678 
2517.706 
2517.733 
2517.761 
2517.789 
2517.816 
2517.844 
2517.872 
2517.900 
2517.927 
2517.955 
2517.983 
2518.010 
2518.038 
2518.066 
2518.093 
2518.121 
2518.149 
2518.177 
2518.204 
2518.232 
2518.260 
2518.287 
2518.315 
2518.343 
2518.370 
2518.398 
2518.426 
2518.453 
2518.481 
2518.509 
2518.537 
2518.564 
2518.592 
2518.620 
2518.647 
2518.675 
2518.703 
2518.730 
2518.758 
2518.786 
2518.813 
2518.841 
2518.869 
2518.896 
2518.924 
2518.952 
2518.979 
2519.007 
2519.035 
2519.062 
2519.090 
2519.118 
2519.145 
2519.173 
2519.201 
2519.228 
2519.256 
2519.284 
2519.311 
2519.339 
2519.367 
2519.394 
2519.422 
2519.450 
2519.477 
2519.505 
2519.533 
2519.560 
2519.588 
2519.616 
2519.643 
2519.671 
2519.698 
2519.726 
2519.754 
2519.781 
2519.809 
2519.837 
2519.864 
2519.892 
2519.920 
2519.947 
2519.975 
2520.003 
2520.030 
2520.058 
2520.085 
2520.113 
2520.141 
2520.168 
2520.196 
2520.224 
2520.251 
2520.279 
2520.306 
2520.334 
2520.362 
2520.389 
2520.417 
2520.445 
2520.472 
2520.500 
2520.527 
2520.555 
2520.583 
2520.610 
2520.638 
2520.666 
2520.693 
2520.721 
2520.748 
2520.776 
2520.804 
2520.831 
2520.859 
2520.886 
2520.914 
2520.942 
2520.969 
2520.997 
2521.024 
2521.052 
2521.080 
2521.107 
2521.135 
2521.162 
2521.190 
2521.218 
2521.245 
2521.273 
2521.300 
2521.328 
2521.356 
2521.383 
2521.411 
2521.438 
2521.466 
2521.493 
2521.521 
2521.549 
2521.576 
2521.604 
2521.631 
2521.659 
2521.687 
2521.714 
2521.742 
2521.769 
2521.797 
2521.824 
2521.852 
2521.880 
2521.907 
2521.935 
2521.962 
2521.990 
2522.017 
2522.045 
2522.073 
2522.100 
2522.128 
2522.155 
2522.183 
2522.210 
2522.238 
2522.265 
2522.293 
2522.321 
2522.348 
2522.376 
2522.403 
2522.431 
2522.458 
2522.486 
2522.513 
2522.541 
2522.569 
2522.596 
2522.624 
2522.651 
2522.679 
2522.706 
2522.734 
2522.761 
2522.789 
2522.816 
2522.844 
2522.872 
2522.899 
2522.927 
2522.954 
2522.982 
2523.009 
2523.037 
2523.064 
2523.092 
2523.119 
2523.147 
2523.174 
2523.202 
2523.229 
2523.257 
2523.285 
2523.312 
2523.340 
2523.367 
2523.395 
2523.422 
2523.450 
2523.477 
2523.505 
2523.532 
2523.560 
2523.587 
2523.615 
2523.642 
2523.670 
2523.697 
2523.725 
2523.752 
2523.780 
2523.807 
2523.835 
2523.862 
2523.890 
2523.917 
2523.945 
2523.972 
2524.000 
2524.027 
2524.055 
2524.082 
2524.110 
2524.137 
2524.165 
2524.192 
2524.220 
2524.247 
2524.275 
2524.302 
2524.330 
2524.357 
2524.385 
2524.412 
2524.440 
2524.467 
2524.495 
2524.522 
2524.550 
2524.577 
2524.605 
2524.632 
2524.660 
2524.687 
2524.715 
2524.742 
2524.770 
2524.797 
2524.824 
2524.852 
2524.879 
2524.907 
2524.934 
2524.962 
2524.989 
2525.017 
2525.044 
2525.072 
2525.099 
2525.127 
2525.154 
2525.182 
2525.209 
2525.236 
2525.264 
2525.291 
2525.319 
2525.346 
2525.374 
2525.401 
2525.429 
2525.456 
2525.484 
2525.511 
2525.538 
2525.566 
2525.593 
2525.621 
2525.648 
2525.676 
2525.703 
2525.731 
2525.758 
2525.785 
2525.813 
2525.840 
2525.868 
2525.895 
2525.923 
2525.950 
2525.977 
2526.005 
2526.032 
2526.060 
2526.087 
2526.115 
2526.142 
2526.169 
2526.197 
2526.224 
2526.252 
2526.279 
2526.307 
2526.334 
2526.361 
2526.389 
2526.416 
2526.444 
2526.471 
2526.499 
2526.526 
2526.553 
2526.581 
2526.608 
2526.636 
2526.663 
2526.690 
2526.718 
2526.745 
2526.773 
2526.800 
2526.827 
2526.855 
2526.882 
2526.910 
2526.937 
2526.964 
2526.992 
2527.019 
2527.047 
2527.074 
2527.101 
2527.129 
2527.156 
2527.184 
2527.211 
2527.238 
2527.266 
2527.293 
2527.321 
2527.348 
2527.375 
2527.403 
2527.430 
2527.458 
2527.485 
2527.512 
2527.540 
2527.567 
2527.594 
2527.622 
2527.649 
2527.677 
2527.704 
2527.731 
2527.759 
2527.786 
2527.813 
2527.841 
2527.868 
2527.896 
2527.923 
2527.950 
2527.978 
2528.005 
2528.032 
2528.060 
2528.087 
2528.114 
2528.142 
2528.169 
2528.197 
2528.224 
2528.251 
2528.279 
2528.306 
2528.333 
2528.361 
2528.388 
2528.415 
2528.443 
2528.470 
2528.497 
2528.525 
2528.552 
2528.579 
2528.607 
2528.634 
2528.661 
2528.689 
2528.716 
2528.743 
2528.771 
2528.798 
2528.825 
2528.853 
2528.880 
2528.907 
2528.935 
2528.962 
2528.989 
2529.017 
2529.044 
2529.071 
2529.099 
2529.126 
2529.153 
2529.181 
2529.208 
2529.235 
2529.263 
2529.290 
2529.317 
2529.345 
2529.372 
2529.399 
2529.427 
2529.454 
2529.481 
2529.509 
2529.536 
2529.563 
2529.591 
2529.618 
2529.645 
2529.672 
2529.700 
2529.727 
2529.754 
2529.782 
2529.809 
2529.836 
2529.864 
2529.891 
2529.918 
2529.946 
2529.973 
2530.000 
2530.027 
2530.055 
2530.082 
2530.109 
2530.137 
2530.164 
2530.191 
2530.218 
2530.246 
2530.273 
2530.300 
2530.328 
2530.355 
2530.382 
2530.409 
2530.437 
2530.464 
2530.491 
2530.519 
2530.546 
2530.573 
2530.600 
2530.628 
2530.655 
2530.682 
2530.709 
2530.737 
2530.764 
2530.791 
2530.819 
2530.846 
2530.873 
2530.900 
2530.928 
2530.955 
2530.982 
2531.009 
2531.037 
2531.064 
2531.091 
2531.118 
2531.146 
2531.173 
2531.200 
2531.227 
2531.255 
2531.282 
2531.309 
2531.337 
2531.364 
2531.391 
2531.418 
2531.445 
2531.473 
2531.500 
2531.527 
2531.554 
2531.582 
2531.609 
2531.636 
2531.663 
2531.691 
2531.718 
2531.745 
2531.772 
2531.800 
2531.827 
2531.854 
2531.881 
2531.909 
2531.936 
2531.963 
2531.990 
2532.017 
2532.045 
2532.072 
2532.099 
2532.126 
2532.154 
2532.181 
2532.208 
2532.235 
2532.262 
2532.290 
2532.317 
2532.344 
2532.371 
2532.399 
2532.426 
2532.453 
2532.480 
2532.507 
2532.535 
2532.562 
2532.589 
2532.616 
2532.643 
2532.671 
2532.698 
2532.725 
2532.752 
2532.779 
2532.807 
2532.834 
2532.861 
2532.888 
2532.915 
2532.943 
2532.970 
2532.997 
2533.024 
2533.051 
2533.079 
2533.106 
2533.133 
2533.160 
2533.187 
2533.215 
2533.242 
2533.269 
2533.296 
2533.323 
2533.351 
2533.378 
2533.405 
2533.432 
2533.459 
2533.486 
2533.514 
2533.541 
2533.568 
2533.595 
2533.622 
2533.649 
2533.677 
2533.704 
2533.731 
2533.758 
2533.785 
2533.812 
2533.840 
2533.867 
2533.894 
2533.921 
2533.948 
2533.975 
2534.003 
2534.030 
2534.057 
2534.084 
2534.111 
2534.138 
2534.166 
2534.193 
2534.220 
2534.247 
2534.274 
2534.301 
2534.328 
2534.356 
2534.383 
2534.410 
2534.437 
2534.464 
2534.491 
2534.518 
2534.546 
2534.573 
2534.600 
2534.627 
2534.654 
2534.681 
2534.708 
2534.736 
2534.763 
2534.790 
2534.817 
2534.844 
2534.871 
2534.898 
2534.925 
2534.953 
2534.980 
2535.007 
2535.034 
2535.061 
2535.088 
2535.115 
2535.142 
2535.170 
2535.197 
2535.224 
2535.251 
2535.278 
2535.305 
2535.332 
2535.359 
2535.387 
2535.414 
2535.441 
2535.468 
2535.495 
2535.522 
2535.549 
2535.576 
2535.603 
2535.630 
2535.658 
2535.685 
2535.712 
2535.739 
2535.766 
2535.793 
2535.820 
2535.847 
2535.874 
2535.901 
2535.929 
2535.956 
2535.983 
2536.010 
2536.037 
2536.064 
2536.091 
2536.118 
2536.145 
2536.172 
2536.199 
2536.227 
2536.254 
2536.281 
2536.308 
2536.335 
2536.362 
2536.389 
2536.416 
2536.443 
2536.470 
2536.497 
2536.524 
2536.551 
2536.579 
2536.606 
2536.633 
2536.660 
2536.687 
2536.714 
2536.741 
2536.768 
2536.795 
2536.822 
2536.849 
2536.876 
2536.903 
2536.930 
2536.957 
2536.985 
2537.012 
2537.039 
2537.066 
2537.093 
2537.120 
2537.147 
2537.174 
2537.201 
2537.228 
2537.255 
2537.282 
2537.309 
2537.336 
2537.363 
2537.390 
2537.417 
2537.444 
2537.471 
2537.498 
2537.525 
2537.552 
2537.580 
2537.607 
2537.634 
2537.661 
2537.688 
2537.715 
2537.742 
2537.769 
2537.796 
2537.823 
2537.850 
2537.877 
2537.904 
2537.931 
2537.958 
2537.985 
2538.012 
2538.039 
2538.066 
2538.093 
2538.120 
2538.147 
2538.174 
2538.201 
2538.228 
2538.255 
2538.282 
2538.309 
2538.336 
2538.363 
2538.390 
2538.417 
2538.444 
2538.471 
2538.498 
2538.525 
2538.552 
2538.579 
2538.606 
2538.633 
2538.660 
2538.687 
2538.714 
2538.741 
2538.768 
2538.795 
2538.822 
2538.849 
2538.876 
2538.903 
2538.930 
2538.957 
2538.984 
2539.011 
2539.038 
2539.065 
2539.092 
2539.119 
2539.146 
2539.173 
2539.200 
2539.227 
2539.254 
2539.281 
2539.308 
2539.335 
2539.362 
2539.389 
2539.416 
2539.443 
2539.470 
2539.497 
2539.524 
2539.551 
2539.578 
2539.605 
2539.632 
2539.659 
2539.686 
2539.713 
2539.739 
2539.766 
2539.793 
2539.820 
2539.847 
2539.874 
2539.901 
2539.928 
2539.955 
2539.982 
2540.009 
2540.036 
2540.063 
2540.090 
2540.117 
2540.144 
2540.171 
2540.198 
2540.225 
2540.252 
2540.279 
2540.305 
2540.332 
2540.359 
2540.386 
2540.413 
2540.440 
2540.467 
2540.494 
2540.521 
2540.548 
2540.575 
2540.602 
2540.629 
2540.656 
2540.683 
2540.710 
2540.736 
2540.763 
2540.790 
2540.817 
2540.844 
2540.871 
2540.898 
2540.925 
2540.952 
2540.979 
2541.006 
2541.033 
2541.059 
2541.086 
2541.113 
2541.140 
2541.167 
2541.194 
2541.221 
2541.248 
2541.275 
2541.302 
2541.329 
2541.356 
2541.382 
2541.409 
2541.436 
2541.463 
2541.490 
2541.517 
2541.544 
2541.571 
2541.598 
2541.625 
2541.651 
2541.678 
2541.705 
2541.732 
2541.759 
2541.786 
2541.813 
2541.840 
2541.867 
2541.893 
2541.920 
2541.947 
2541.974 
2542.001 
2542.028 
2542.055 
2542.082 
2542.109 
2542.135 
2542.162 
2542.189 
2542.216 
2542.243 
2542.270 
2542.297 
2542.324 
2542.350 
2542.377 
2542.404 
2542.431 
2542.458 
2542.485 
2542.512 
2542.538 
2542.565 
2542.592 
2542.619 
2542.646 
2542.673 
2542.700 
2542.727 
2542.753 
2542.780 
2542.807 
2542.834 
2542.861 
2542.888 
2542.915 
2542.941 
2542.968 
2542.995 
2543.022 
2543.049 
2543.076 
2543.102 
2543.129 
2543.156 
2543.183 
2543.210 
2543.237 
2543.264 
2543.290 
2543.317 
2543.344 
2543.371 
2543.398 
2543.425 
2543.451 
2543.478 
2543.505 
2543.532 
2543.559 
2543.586 
2543.612 
2543.639 
2543.666 
2543.693 
2543.720 
2543.746 
2543.773 
2543.800 
2543.827 
2543.854 
2543.881 
2543.907 
2543.934 
2543.961 
2543.988 
2544.015 
2544.041 
2544.068 
2544.095 
2544.122 
2544.149 
2544.176 
2544.202 
2544.229 
2544.256 
2544.283 
2544.310 
2544.336 
2544.363 
2544.390 
2544.417 
2544.444 
2544.470 
2544.497 
2544.524 
2544.551 
2544.578 
2544.604 
2544.631 
2544.658 
2544.685 
2544.712 
2544.738 
2544.765 
2544.792 
2544.819 
2544.845 
2544.872 
2544.899 
2544.926 
2544.953 
2544.979 
2545.006 
2545.033 
2545.060 
2545.086 
2545.113 
2545.140 
2545.167 
2545.194 
2545.220 
2545.247 
2545.274 
2545.301 
2545.327 
2545.354 
2545.381 
2545.408 
2545.434 
2545.461 
2545.488 
2545.515 
2545.542 
2545.568 
2545.595 
2545.622 
2545.649 
2545.675 
2545.702 
2545.729 
2545.756 
2545.782 
2545.809 
2545.836 
2545.863 
2545.889 
2545.916 
2545.943 
2545.970 
2545.996 
2546.023 
2546.050 
2546.077 
2546.103 
2546.130 
2546.157 
2546.184 
2546.210 
2546.237 
2546.264 
2546.290 
2546.317 
2546.344 
2546.371 
2546.397 
2546.424 
2546.451 
2546.478 
2546.504 
2546.531 
2546.558 
2546.585 
2546.611 
2546.638 
2546.665 
2546.691 
2546.718 
2546.745 
2546.772 
2546.798 
2546.825 
2546.852 
2546.878 
2546.905 
2546.932 
2546.959 
2546.985 
2547.012 
2547.039 
2547.065 
2547.092 
2547.119 
2547.146 
2547.172 
2547.199 
2547.226 
2547.252 
2547.279 
2547.306 
2547.332 
2547.359 
2547.386 
2547.413 
2547.439 
2547.466 
2547.493 
2547.519 
2547.546 
2547.573 
2547.599 
2547.626 
2547.653 
2547.679 
2547.706 
2547.733 
2547.759 
2547.786 
2547.813 
2547.840 
2547.866 
2547.893 
2547.920 
2547.946 
2547.973 
2548.000 
2548.026 
2548.053 
2548.080 
2548.106 
2548.133 
2548.160 
2548.186 
2548.213 
2548.240 
2548.266 
2548.293 
2548.320 
2548.346 
2548.373 
2548.400 
2548.426 
2548.453 
2548.480 
2548.506 
2548.533 
2548.560 
2548.586 
2548.613 
2548.640 
2548.666 
2548.693 
2548.719 
2548.746 
2548.773 
2548.799 
2548.826 
2548.853 
2548.879 
2548.906 
2548.933 
2548.959 
2548.986 
2549.013 
2549.039 
2549.066 
2549.093 
2549.119 
2549.146 
2549.172 
2549.199 
2549.226 
2549.252 
2549.279 
2549.306 
2549.332 
2549.359 
2549.385 
2549.412 
2549.439 
2549.465 
2549.492 
2549.519 
2549.545 
2549.572 
2549.598 
2549.625 
2549.652 
2549.678 
2549.705 
2549.732 
2549.758 
2549.785 
2549.811 
2549.838 
2549.865 
2549.891 
2549.918 
2549.944 
2549.971 
2549.998 
2550.024 
2550.051 
2550.077 
2550.104 
2550.131 
2550.157 
2550.184 
2550.210 
2550.237 
2550.264 
2550.290 
2550.317 
2550.343 
2550.370 
2550.397 
2550.423 
2550.450 
2550.476 
2550.503 
2550.530 
2550.556 
2550.583 
2550.609 
2550.636 
2550.662 
2550.689 
2550.716 
2550.742 
2550.769 
2550.795 
2550.822 
2550.849 
2550.875 
2550.902 
2550.928 
2550.955 
2550.981 
2551.008 
2551.035 
2551.061 
2551.088 
2551.114 
2551.141 
2551.167 
2551.194 
2551.220 
2551.247 
2551.274 
2551.300 
2551.327 
2551.353 
2551.380 
2551.406 
2551.433 
2551.460 
2551.486 
2551.513 
2551.539 
2551.566 
2551.592 
2551.619 
2551.645 
2551.672 
2551.698 
2551.725 
2551.752 
2551.778 
2551.805 
