# Wavelength table for hrs,echa,26
2120.000 
2120.024 
2120.048 
2120.071 
2120.095 
2120.119 
2120.143 
2120.167 
2120.190 
2120.214 
2120.238 
2120.262 
2120.286 
2120.309 
2120.333 
2120.357 
2120.381 
2120.404 
2120.428 
2120.452 
2120.476 
2120.500 
2120.523 
2120.547 
2120.571 
2120.595 
2120.619 
2120.642 
2120.666 
2120.690 
2120.714 
2120.737 
2120.761 
2120.785 
2120.809 
2120.833 
2120.856 
2120.880 
2120.904 
2120.928 
2120.951 
2120.975 
2120.999 
2121.023 
2121.046 
2121.070 
2121.094 
2121.118 
2121.142 
2121.165 
2121.189 
2121.213 
2121.237 
2121.260 
2121.284 
2121.308 
2121.332 
2121.355 
2121.379 
2121.403 
2121.427 
2121.450 
2121.474 
2121.498 
2121.522 
2121.545 
2121.569 
2121.593 
2121.617 
2121.640 
2121.664 
2121.688 
2121.712 
2121.735 
2121.759 
2121.783 
2121.807 
2121.830 
2121.854 
2121.878 
2121.902 
2121.925 
2121.949 
2121.973 
2121.996 
2122.020 
2122.044 
2122.068 
2122.091 
2122.115 
2122.139 
2122.163 
2122.186 
2122.210 
2122.234 
2122.257 
2122.281 
2122.305 
2122.329 
2122.352 
2122.376 
2122.400 
2122.424 
2122.447 
2122.471 
2122.495 
2122.518 
2122.542 
2122.566 
2122.590 
2122.613 
2122.637 
2122.661 
2122.684 
2122.708 
2122.732 
2122.756 
2122.779 
2122.803 
2122.827 
2122.850 
2122.874 
2122.898 
2122.921 
2122.945 
2122.969 
2122.993 
2123.016 
2123.040 
2123.064 
2123.087 
2123.111 
2123.135 
2123.158 
2123.182 
2123.206 
2123.230 
2123.253 
2123.277 
2123.301 
2123.324 
2123.348 
2123.372 
2123.395 
2123.419 
2123.443 
2123.466 
2123.490 
2123.514 
2123.538 
2123.561 
2123.585 
2123.609 
2123.632 
2123.656 
2123.680 
2123.703 
2123.727 
2123.751 
2123.774 
2123.798 
2123.822 
2123.845 
2123.869 
2123.893 
2123.916 
2123.940 
2123.964 
2123.987 
2124.011 
2124.035 
2124.058 
2124.082 
2124.106 
2124.129 
2124.153 
2124.177 
2124.200 
2124.224 
2124.248 
2124.271 
2124.295 
2124.319 
2124.342 
2124.366 
2124.390 
2124.413 
2124.437 
2124.461 
2124.484 
2124.508 
2124.532 
2124.555 
2124.579 
2124.603 
2124.626 
2124.650 
2124.673 
2124.697 
2124.721 
2124.744 
2124.768 
2124.792 
2124.815 
2124.839 
2124.863 
2124.886 
2124.910 
2124.934 
2124.957 
2124.981 
2125.004 
2125.028 
2125.052 
2125.075 
2125.099 
2125.123 
2125.146 
2125.170 
2125.193 
2125.217 
2125.241 
2125.264 
2125.288 
2125.312 
2125.335 
2125.359 
2125.382 
2125.406 
2125.430 
2125.453 
2125.477 
2125.501 
2125.524 
2125.548 
2125.571 
2125.595 
2125.619 
2125.642 
2125.666 
2125.690 
2125.713 
2125.737 
2125.760 
2125.784 
2125.808 
2125.831 
2125.855 
2125.878 
2125.902 
2125.926 
2125.949 
2125.973 
2125.996 
2126.020 
2126.044 
2126.067 
2126.091 
2126.114 
2126.138 
2126.162 
2126.185 
2126.209 
2126.232 
2126.256 
2126.280 
2126.303 
2126.327 
2126.350 
2126.374 
2126.398 
2126.421 
2126.445 
2126.468 
2126.492 
2126.515 
2126.539 
2126.563 
2126.586 
2126.610 
2126.633 
2126.657 
2126.681 
2126.704 
2126.728 
2126.751 
2126.775 
2126.798 
2126.822 
2126.846 
2126.869 
2126.893 
2126.916 
2126.940 
2126.963 
2126.987 
2127.011 
2127.034 
2127.058 
2127.081 
2127.105 
2127.128 
2127.152 
2127.176 
2127.199 
2127.223 
2127.246 
2127.270 
2127.293 
2127.317 
2127.340 
2127.364 
2127.388 
2127.411 
2127.435 
2127.458 
2127.482 
2127.505 
2127.529 
2127.552 
2127.576 
2127.600 
2127.623 
2127.647 
2127.670 
2127.694 
2127.717 
2127.741 
2127.764 
2127.788 
2127.811 
2127.835 
2127.859 
2127.882 
2127.906 
2127.929 
2127.953 
2127.976 
2128.000 
2128.023 
2128.047 
2128.070 
2128.094 
2128.117 
2128.141 
2128.165 
2128.188 
2128.212 
2128.235 
2128.259 
2128.282 
2128.306 
2128.329 
2128.353 
2128.376 
2128.400 
2128.423 
2128.447 
2128.470 
2128.494 
2128.517 
2128.541 
2128.564 
2128.588 
2128.611 
2128.635 
2128.658 
2128.682 
2128.706 
2128.729 
2128.753 
2128.776 
2128.800 
2128.823 
2128.847 
2128.870 
2128.894 
2128.917 
2128.941 
2128.964 
2128.988 
2129.011 
2129.035 
2129.058 
2129.082 
2129.105 
2129.129 
2129.152 
2129.176 
2129.199 
2129.223 
2129.246 
2129.270 
2129.293 
2129.317 
2129.340 
2129.364 
2129.387 
2129.411 
2129.434 
2129.458 
2129.481 
2129.505 
2129.528 
2129.551 
2129.575 
2129.598 
2129.622 
2129.645 
2129.669 
2129.692 
2129.716 
2129.739 
2129.763 
2129.786 
2129.810 
2129.833 
2129.857 
2129.880 
2129.904 
2129.927 
2129.951 
2129.974 
2129.998 
2130.021 
2130.044 
2130.068 
2130.091 
2130.115 
2130.138 
2130.162 
2130.185 
2130.209 
2130.232 
2130.256 
2130.279 
2130.303 
2130.326 
2130.349 
2130.373 
2130.396 
2130.420 
2130.443 
2130.467 
2130.490 
2130.514 
2130.537 
2130.561 
2130.584 
2130.607 
2130.631 
2130.654 
2130.678 
2130.701 
2130.725 
2130.748 
2130.772 
2130.795 
2130.818 
2130.842 
2130.865 
2130.889 
2130.912 
2130.936 
2130.959 
2130.983 
2131.006 
2131.029 
2131.053 
2131.076 
2131.100 
2131.123 
2131.147 
2131.170 
2131.193 
2131.217 
2131.240 
2131.264 
2131.287 
2131.311 
2131.334 
2131.357 
2131.381 
2131.404 
2131.428 
2131.451 
2131.475 
2131.498 
2131.521 
2131.545 
2131.568 
2131.592 
2131.615 
2131.639 
2131.662 
2131.685 
2131.709 
2131.732 
2131.756 
2131.779 
2131.802 
2131.826 
2131.849 
2131.873 
2131.896 
2131.919 
2131.943 
2131.966 
2131.990 
2132.013 
2132.036 
2132.060 
2132.083 
2132.107 
2132.130 
2132.153 
2132.177 
2132.200 
2132.224 
2132.247 
2132.270 
2132.294 
2132.317 
2132.341 
2132.364 
2132.387 
2132.411 
2132.434 
2132.458 
2132.481 
2132.504 
2132.528 
2132.551 
2132.574 
2132.598 
2132.621 
2132.645 
2132.668 
2132.691 
2132.715 
2132.738 
2132.762 
2132.785 
2132.808 
2132.832 
2132.855 
2132.878 
2132.902 
2132.925 
2132.949 
2132.972 
2132.995 
2133.019 
2133.042 
2133.065 
2133.089 
2133.112 
2133.135 
2133.159 
2133.182 
2133.206 
2133.229 
2133.252 
2133.276 
2133.299 
2133.322 
2133.346 
2133.369 
2133.392 
2133.416 
2133.439 
2133.462 
2133.486 
2133.509 
2133.533 
2133.556 
2133.579 
2133.603 
2133.626 
2133.649 
2133.673 
2133.696 
2133.719 
2133.743 
2133.766 
2133.789 
2133.813 
2133.836 
2133.859 
2133.883 
2133.906 
2133.929 
2133.953 
2133.976 
2133.999 
2134.023 
2134.046 
2134.069 
2134.093 
2134.116 
2134.139 
2134.163 
2134.186 
2134.209 
2134.233 
2134.256 
2134.279 
2134.303 
2134.326 
2134.349 
2134.373 
2134.396 
2134.419 
2134.443 
2134.466 
2134.489 
2134.513 
2134.536 
2134.559 
2134.583 
2134.606 
2134.629 
2134.653 
2134.676 
2134.699 
2134.722 
2134.746 
2134.769 
2134.792 
2134.816 
2134.839 
2134.862 
2134.886 
2134.909 
2134.932 
2134.956 
2134.979 
2135.002 
2135.025 
2135.049 
2135.072 
2135.095 
2135.119 
2135.142 
2135.165 
2135.189 
2135.212 
2135.235 
2135.258 
2135.282 
2135.305 
2135.328 
2135.352 
2135.375 
2135.398 
2135.421 
2135.445 
2135.468 
2135.491 
2135.515 
2135.538 
2135.561 
2135.584 
2135.608 
2135.631 
2135.654 
2135.678 
2135.701 
2135.724 
2135.747 
2135.771 
2135.794 
2135.817 
2135.841 
2135.864 
2135.887 
2135.910 
2135.934 
2135.957 
2135.980 
2136.003 
2136.027 
2136.050 
2136.073 
2136.097 
2136.120 
2136.143 
2136.166 
2136.190 
2136.213 
2136.236 
2136.259 
2136.283 
2136.306 
2136.329 
2136.352 
2136.376 
2136.399 
2136.422 
2136.445 
2136.469 
2136.492 
2136.515 
2136.538 
2136.562 
2136.585 
2136.608 
2136.631 
2136.655 
2136.678 
2136.701 
2136.724 
2136.748 
2136.771 
2136.794 
2136.817 
2136.841 
2136.864 
2136.887 
2136.910 
2136.934 
2136.957 
2136.980 
2137.003 
2137.027 
2137.050 
2137.073 
2137.096 
2137.119 
2137.143 
2137.166 
2137.189 
2137.212 
2137.236 
2137.259 
2137.282 
2137.305 
2137.329 
2137.352 
2137.375 
2137.398 
2137.421 
2137.445 
2137.468 
2137.491 
2137.514 
2137.538 
2137.561 
2137.584 
2137.607 
2137.630 
2137.654 
2137.677 
2137.700 
2137.723 
2137.746 
2137.770 
2137.793 
2137.816 
2137.839 
2137.862 
2137.886 
2137.909 
2137.932 
2137.955 
2137.978 
2138.002 
2138.025 
2138.048 
2138.071 
2138.095 
2138.118 
2138.141 
2138.164 
2138.187 
2138.210 
2138.234 
2138.257 
2138.280 
2138.303 
2138.326 
2138.350 
2138.373 
2138.396 
2138.419 
2138.442 
2138.466 
2138.489 
2138.512 
2138.535 
2138.558 
2138.582 
2138.605 
2138.628 
2138.651 
2138.674 
2138.697 
2138.721 
2138.744 
2138.767 
2138.790 
2138.813 
2138.836 
2138.860 
2138.883 
2138.906 
2138.929 
2138.952 
2138.975 
2138.999 
2139.022 
2139.045 
2139.068 
2139.091 
2139.114 
2139.138 
2139.161 
2139.184 
2139.207 
2139.230 
2139.253 
2139.277 
2139.300 
2139.323 
2139.346 
2139.369 
2139.392 
2139.416 
2139.439 
2139.462 
2139.485 
2139.508 
2139.531 
2139.554 
2139.578 
2139.601 
2139.624 
2139.647 
2139.670 
2139.693 
2139.716 
2139.740 
2139.763 
2139.786 
2139.809 
2139.832 
2139.855 
2139.878 
2139.902 
2139.925 
2139.948 
2139.971 
2139.994 
2140.017 
2140.040 
2140.064 
2140.087 
2140.110 
2140.133 
2140.156 
2140.179 
2140.202 
2140.225 
2140.249 
2140.272 
2140.295 
2140.318 
2140.341 
2140.364 
2140.387 
2140.410 
2140.434 
2140.457 
2140.480 
2140.503 
2140.526 
2140.549 
2140.572 
2140.595 
2140.619 
2140.642 
2140.665 
2140.688 
2140.711 
2140.734 
2140.757 
2140.780 
2140.803 
2140.827 
2140.850 
2140.873 
2140.896 
2140.919 
2140.942 
2140.965 
2140.988 
2141.011 
2141.034 
2141.058 
2141.081 
2141.104 
2141.127 
2141.150 
2141.173 
2141.196 
2141.219 
2141.242 
2141.265 
2141.288 
2141.312 
2141.335 
2141.358 
2141.381 
2141.404 
2141.427 
2141.450 
2141.473 
2141.496 
2141.519 
2141.542 
2141.566 
2141.589 
2141.612 
2141.635 
2141.658 
2141.681 
2141.704 
2141.727 
2141.750 
2141.773 
2141.796 
2141.819 
2141.842 
2141.866 
2141.889 
2141.912 
2141.935 
2141.958 
2141.981 
2142.004 
2142.027 
2142.050 
2142.073 
2142.096 
2142.119 
2142.142 
2142.165 
2142.188 
2142.211 
2142.235 
2142.258 
2142.281 
2142.304 
2142.327 
2142.350 
2142.373 
2142.396 
2142.419 
2142.442 
2142.465 
2142.488 
2142.511 
2142.534 
2142.557 
2142.580 
2142.603 
2142.626 
2142.649 
2142.673 
2142.696 
2142.719 
2142.742 
2142.765 
2142.788 
2142.811 
2142.834 
2142.857 
2142.880 
2142.903 
2142.926 
2142.949 
2142.972 
2142.995 
2143.018 
2143.041 
2143.064 
2143.087 
2143.110 
2143.133 
2143.156 
2143.179 
2143.202 
2143.225 
2143.248 
2143.271 
2143.294 
2143.317 
2143.340 
2143.364 
2143.387 
2143.410 
2143.433 
2143.456 
2143.479 
2143.502 
2143.525 
2143.548 
2143.571 
2143.594 
2143.617 
2143.640 
2143.663 
2143.686 
2143.709 
2143.732 
2143.755 
2143.778 
2143.801 
2143.824 
2143.847 
2143.870 
2143.893 
2143.916 
2143.939 
2143.962 
2143.985 
2144.008 
2144.031 
2144.054 
2144.077 
2144.100 
2144.123 
2144.146 
2144.169 
2144.192 
2144.215 
2144.238 
2144.261 
2144.284 
2144.307 
2144.330 
2144.353 
2144.376 
2144.399 
2144.422 
2144.445 
2144.468 
2144.491 
2144.514 
2144.537 
2144.560 
2144.583 
2144.605 
2144.628 
2144.651 
2144.674 
2144.697 
2144.720 
2144.743 
2144.766 
2144.789 
2144.812 
2144.835 
2144.858 
2144.881 
2144.904 
2144.927 
2144.950 
2144.973 
2144.996 
2145.019 
2145.042 
2145.065 
2145.088 
2145.111 
2145.134 
2145.157 
2145.180 
2145.203 
2145.226 
2145.249 
2145.272 
2145.294 
2145.317 
2145.340 
2145.363 
2145.386 
2145.409 
2145.432 
2145.455 
2145.478 
2145.501 
2145.524 
2145.547 
2145.570 
2145.593 
2145.616 
2145.639 
2145.662 
2145.685 
2145.708 
2145.730 
2145.753 
2145.776 
2145.799 
2145.822 
2145.845 
2145.868 
2145.891 
2145.914 
2145.937 
2145.960 
2145.983 
2146.006 
2146.029 
2146.052 
2146.075 
2146.097 
2146.120 
2146.143 
2146.166 
2146.189 
2146.212 
2146.235 
2146.258 
2146.281 
2146.304 
2146.327 
2146.350 
2146.373 
2146.395 
2146.418 
2146.441 
2146.464 
2146.487 
2146.510 
2146.533 
2146.556 
2146.579 
2146.602 
2146.625 
2146.647 
2146.670 
2146.693 
2146.716 
2146.739 
2146.762 
2146.785 
2146.808 
2146.831 
2146.854 
2146.877 
2146.899 
2146.922 
2146.945 
2146.968 
2146.991 
2147.014 
2147.037 
2147.060 
2147.083 
2147.106 
2147.128 
2147.151 
2147.174 
2147.197 
2147.220 
2147.243 
2147.266 
2147.289 
2147.312 
2147.334 
2147.357 
2147.380 
2147.403 
2147.426 
2147.449 
2147.472 
2147.495 
2147.517 
2147.540 
2147.563 
2147.586 
2147.609 
2147.632 
2147.655 
2147.678 
2147.700 
2147.723 
2147.746 
2147.769 
2147.792 
2147.815 
2147.838 
2147.861 
2147.883 
2147.906 
2147.929 
2147.952 
2147.975 
2147.998 
2148.021 
2148.043 
2148.066 
2148.089 
2148.112 
2148.135 
2148.158 
2148.181 
2148.203 
2148.226 
2148.249 
2148.272 
2148.295 
2148.318 
2148.341 
2148.363 
2148.386 
2148.409 
2148.432 
2148.455 
2148.478 
2148.501 
2148.523 
2148.546 
2148.569 
2148.592 
2148.615 
2148.638 
2148.660 
2148.683 
2148.706 
2148.729 
2148.752 
2148.775 
2148.797 
2148.820 
2148.843 
2148.866 
2148.889 
2148.912 
2148.934 
2148.957 
2148.980 
2149.003 
2149.026 
2149.049 
2149.071 
2149.094 
2149.117 
2149.140 
2149.163 
2149.186 
2149.208 
2149.231 
2149.254 
2149.277 
2149.300 
2149.322 
2149.345 
2149.368 
2149.391 
2149.414 
2149.437 
2149.459 
2149.482 
2149.505 
2149.528 
2149.551 
2149.573 
2149.596 
2149.619 
2149.642 
2149.665 
2149.687 
2149.710 
2149.733 
2149.756 
2149.779 
2149.801 
2149.824 
2149.847 
2149.870 
2149.893 
2149.915 
2149.938 
2149.961 
2149.984 
2150.007 
2150.029 
2150.052 
2150.075 
2150.098 
2150.121 
2150.143 
2150.166 
2150.189 
2150.212 
2150.235 
2150.257 
2150.280 
2150.303 
2150.326 
2150.348 
2150.371 
2150.394 
2150.417 
2150.440 
2150.462 
2150.485 
2150.508 
2150.531 
2150.553 
2150.576 
2150.599 
2150.622 
2150.645 
2150.667 
2150.690 
2150.713 
2150.736 
2150.758 
2150.781 
2150.804 
2150.827 
2150.850 
2150.872 
2150.895 
2150.918 
2150.941 
2150.963 
2150.986 
2151.009 
2151.032 
2151.054 
2151.077 
2151.100 
2151.123 
2151.145 
2151.168 
2151.191 
2151.214 
2151.236 
2151.259 
2151.282 
2151.305 
2151.327 
2151.350 
2151.373 
2151.396 
2151.418 
2151.441 
2151.464 
2151.487 
2151.509 
2151.532 
2151.555 
2151.578 
2151.600 
2151.623 
2151.646 
2151.669 
2151.691 
2151.714 
2151.737 
2151.760 
2151.782 
2151.805 
2151.828 
2151.850 
2151.873 
2151.896 
2151.919 
2151.941 
2151.964 
2151.987 
2152.010 
2152.032 
2152.055 
2152.078 
2152.100 
2152.123 
2152.146 
2152.169 
2152.191 
2152.214 
2152.237 
2152.259 
2152.282 
2152.305 
2152.328 
2152.350 
2152.373 
2152.396 
2152.418 
2152.441 
2152.464 
2152.487 
2152.509 
2152.532 
2152.555 
2152.577 
2152.600 
2152.623 
2152.646 
2152.668 
2152.691 
2152.714 
2152.736 
2152.759 
2152.782 
2152.804 
2152.827 
2152.850 
2152.873 
2152.895 
2152.918 
2152.941 
2152.963 
2152.986 
2153.009 
2153.031 
2153.054 
2153.077 
2153.099 
2153.122 
2153.145 
2153.168 
2153.190 
2153.213 
2153.236 
2153.258 
2153.281 
2153.304 
2153.326 
2153.349 
2153.372 
2153.394 
2153.417 
2153.440 
2153.462 
2153.485 
2153.508 
2153.530 
2153.553 
2153.576 
2153.598 
2153.621 
2153.644 
2153.666 
2153.689 
2153.712 
2153.734 
2153.757 
2153.780 
2153.802 
2153.825 
2153.848 
2153.870 
2153.893 
2153.916 
2153.938 
2153.961 
2153.984 
2154.006 
2154.029 
2154.052 
2154.074 
2154.097 
2154.120 
2154.142 
2154.165 
2154.188 
2154.210 
2154.233 
2154.256 
2154.278 
2154.301 
2154.323 
2154.346 
2154.369 
2154.391 
2154.414 
2154.437 
2154.459 
2154.482 
2154.505 
2154.527 
2154.550 
2154.573 
2154.595 
2154.618 
2154.640 
2154.663 
2154.686 
2154.708 
2154.731 
2154.754 
2154.776 
2154.799 
2154.821 
2154.844 
2154.867 
2154.889 
2154.912 
2154.935 
2154.957 
2154.980 
2155.002 
2155.025 
2155.048 
2155.070 
2155.093 
2155.116 
2155.138 
2155.161 
2155.183 
2155.206 
2155.229 
2155.251 
2155.274 
2155.297 
2155.319 
2155.342 
2155.364 
2155.387 
2155.410 
2155.432 
2155.455 
2155.477 
2155.500 
2155.523 
2155.545 
2155.568 
2155.590 
2155.613 
2155.636 
2155.658 
2155.681 
2155.703 
2155.726 
2155.749 
2155.771 
2155.794 
2155.816 
2155.839 
2155.862 
2155.884 
2155.907 
2155.929 
2155.952 
2155.975 
2155.997 
2156.020 
2156.042 
2156.065 
2156.087 
2156.110 
2156.133 
2156.155 
2156.178 
2156.200 
2156.223 
2156.246 
2156.268 
2156.291 
2156.313 
2156.336 
2156.358 
2156.381 
2156.404 
2156.426 
2156.449 
2156.471 
2156.494 
2156.516 
2156.539 
2156.562 
2156.584 
2156.607 
2156.629 
2156.652 
2156.674 
2156.697 
2156.720 
2156.742 
2156.765 
2156.787 
2156.810 
2156.832 
2156.855 
2156.877 
2156.900 
2156.923 
2156.945 
2156.968 
2156.990 
2157.013 
2157.035 
2157.058 
2157.080 
2157.103 
2157.126 
2157.148 
2157.171 
2157.193 
2157.216 
2157.238 
2157.261 
2157.283 
2157.306 
2157.328 
2157.351 
2157.374 
2157.396 
2157.419 
2157.441 
2157.464 
2157.486 
2157.509 
2157.531 
2157.554 
2157.576 
2157.599 
2157.621 
2157.644 
2157.666 
2157.689 
2157.712 
2157.734 
2157.757 
2157.779 
2157.802 
2157.824 
2157.847 
2157.869 
2157.892 
2157.914 
2157.937 
2157.959 
2157.982 
2158.004 
2158.027 
2158.049 
2158.072 
2158.094 
2158.117 
2158.139 
2158.162 
2158.184 
2158.207 
2158.230 
2158.252 
2158.275 
2158.297 
2158.320 
2158.342 
2158.365 
2158.387 
2158.410 
2158.432 
2158.455 
2158.477 
2158.500 
2158.522 
2158.545 
2158.567 
2158.590 
2158.612 
2158.635 
2158.657 
2158.680 
2158.702 
2158.725 
2158.747 
2158.770 
2158.792 
2158.815 
2158.837 
2158.860 
2158.882 
2158.904 
2158.927 
2158.949 
2158.972 
2158.994 
2159.017 
2159.039 
2159.062 
2159.084 
2159.107 
2159.129 
2159.152 
2159.174 
2159.197 
2159.219 
2159.242 
2159.264 
2159.287 
2159.309 
2159.332 
2159.354 
2159.377 
2159.399 
2159.421 
2159.444 
2159.466 
2159.489 
2159.511 
2159.534 
2159.556 
2159.579 
2159.601 
2159.624 
2159.646 
2159.669 
2159.691 
2159.714 
2159.736 
2159.758 
2159.781 
2159.803 
2159.826 
2159.848 
2159.871 
2159.893 
2159.916 
2159.938 
2159.961 
2159.983 
2160.005 
2160.028 
2160.050 
2160.073 
2160.095 
2160.118 
2160.140 
2160.163 
2160.185 
2160.207 
2160.230 
2160.252 
2160.275 
2160.297 
2160.320 
2160.342 
2160.365 
2160.387 
2160.409 
2160.432 
2160.454 
2160.477 
2160.499 
2160.522 
2160.544 
2160.566 
2160.589 
2160.611 
2160.634 
2160.656 
2160.679 
2160.701 
2160.723 
2160.746 
2160.768 
2160.791 
2160.813 
2160.835 
2160.858 
2160.880 
2160.903 
2160.925 
2160.948 
2160.970 
2160.992 
2161.015 
2161.037 
2161.060 
2161.082 
2161.104 
2161.127 
2161.149 
2161.172 
2161.194 
2161.217 
2161.239 
2161.261 
2161.284 
2161.306 
2161.329 
2161.351 
2161.373 
2161.396 
2161.418 
2161.441 
2161.463 
2161.485 
2161.508 
2161.530 
2161.553 
2161.575 
2161.597 
2161.620 
2161.642 
2161.665 
2161.687 
2161.709 
2161.732 
2161.754 
2161.776 
2161.799 
2161.821 
2161.844 
2161.866 
2161.888 
2161.911 
2161.933 
2161.956 
2161.978 
2162.000 
2162.023 
2162.045 
2162.067 
2162.090 
2162.112 
2162.135 
2162.157 
2162.179 
2162.202 
2162.224 
2162.246 
2162.269 
2162.291 
2162.314 
2162.336 
2162.358 
2162.381 
2162.403 
2162.425 
2162.448 
2162.470 
2162.492 
2162.515 
2162.537 
2162.560 
2162.582 
2162.604 
2162.627 
2162.649 
2162.671 
2162.694 
2162.716 
2162.738 
2162.761 
2162.783 
2162.805 
2162.828 
2162.850 
2162.872 
2162.895 
2162.917 
2162.940 
2162.962 
2162.984 
2163.007 
2163.029 
2163.051 
2163.074 
2163.096 
2163.118 
2163.141 
2163.163 
2163.185 
2163.208 
2163.230 
2163.252 
2163.275 
2163.297 
2163.319 
2163.342 
2163.364 
2163.386 
2163.409 
2163.431 
2163.453 
2163.476 
2163.498 
2163.520 
2163.543 
2163.565 
2163.587 
2163.610 
2163.632 
2163.654 
2163.677 
2163.699 
2163.721 
2163.744 
2163.766 
2163.788 
2163.810 
2163.833 
2163.855 
2163.877 
2163.900 
2163.922 
2163.944 
2163.967 
2163.989 
2164.011 
2164.034 
2164.056 
2164.078 
2164.101 
2164.123 
2164.145 
2164.167 
2164.190 
2164.212 
2164.234 
2164.257 
2164.279 
2164.301 
2164.324 
2164.346 
2164.368 
2164.390 
2164.413 
2164.435 
2164.457 
2164.480 
2164.502 
2164.524 
2164.546 
2164.569 
2164.591 
2164.613 
2164.636 
2164.658 
2164.680 
2164.702 
2164.725 
2164.747 
2164.769 
2164.792 
2164.814 
2164.836 
2164.858 
2164.881 
2164.903 
2164.925 
2164.948 
2164.970 
2164.992 
2165.014 
2165.037 
2165.059 
2165.081 
2165.103 
2165.126 
2165.148 
2165.170 
2165.193 
2165.215 
2165.237 
2165.259 
2165.282 
2165.304 
2165.326 
2165.348 
2165.371 
2165.393 
2165.415 
2165.437 
2165.460 
2165.482 
2165.504 
2165.527 
2165.549 
2165.571 
2165.593 
2165.616 
2165.638 
2165.660 
2165.682 
2165.705 
2165.727 
2165.749 
2165.771 
2165.794 
2165.816 
2165.838 
2165.860 
2165.883 
2165.905 
2165.927 
