# Wavelength table for hrs,g140m
1100.000 
1100.056 
1100.112 
1100.168 
1100.224 
1100.280 
1100.336 
1100.392 
1100.448 
1100.504 
1100.560 
1100.616 
1100.672 
1100.728 
1100.784 
1100.840 
1100.896 
1100.952 
1101.008 
1101.064 
1101.120 
1101.176 
1101.232 
1101.288 
1101.344 
1101.400 
1101.456 
1101.512 
1101.568 
1101.624 
1101.680 
1101.736 
1101.792 
1101.848 
1101.904 
1101.960 
1102.016 
1102.072 
1102.128 
1102.184 
1102.240 
1102.296 
1102.352 
1102.408 
1102.464 
1102.520 
1102.576 
1102.632 
1102.688 
1102.744 
1102.800 
1102.856 
1102.912 
1102.968 
1103.024 
1103.080 
1103.136 
1103.192 
1103.248 
1103.304 
1103.360 
1103.415 
1103.471 
1103.527 
1103.583 
1103.639 
1103.695 
1103.751 
1103.807 
1103.863 
1103.919 
1103.975 
1104.031 
1104.087 
1104.143 
1104.199 
1104.255 
1104.311 
1104.367 
1104.423 
1104.479 
1104.535 
1104.591 
1104.647 
1104.703 
1104.759 
1104.815 
1104.871 
1104.927 
1104.983 
1105.039 
1105.095 
1105.151 
1105.207 
1105.263 
1105.319 
1105.375 
1105.431 
1105.487 
1105.543 
1105.599 
1105.655 
1105.711 
1105.767 
1105.823 
1105.879 
1105.934 
1105.990 
1106.046 
1106.102 
1106.158 
1106.214 
1106.270 
1106.326 
1106.382 
1106.438 
1106.494 
1106.550 
1106.606 
1106.662 
1106.718 
1106.774 
1106.830 
1106.886 
1106.942 
1106.998 
1107.054 
1107.110 
1107.166 
1107.222 
1107.278 
1107.334 
1107.390 
1107.446 
1107.502 
1107.558 
1107.614 
1107.669 
1107.725 
1107.781 
1107.837 
1107.893 
1107.949 
1108.005 
1108.061 
1108.117 
1108.173 
1108.229 
1108.285 
1108.341 
1108.397 
1108.453 
1108.509 
1108.565 
1108.621 
1108.677 
1108.733 
1108.789 
1108.845 
1108.901 
1108.957 
1109.013 
1109.068 
1109.124 
1109.180 
1109.236 
1109.292 
1109.348 
1109.404 
1109.460 
1109.516 
1109.572 
1109.628 
1109.684 
1109.740 
1109.796 
1109.852 
1109.908 
1109.964 
1110.020 
1110.076 
1110.132 
1110.188 
1110.243 
1110.299 
1110.355 
1110.411 
1110.467 
1110.523 
1110.579 
1110.635 
1110.691 
1110.747 
1110.803 
1110.859 
1110.915 
1110.971 
1111.027 
1111.083 
1111.139 
1111.195 
1111.251 
1111.306 
1111.362 
1111.418 
1111.474 
1111.530 
1111.586 
1111.642 
1111.698 
1111.754 
1111.810 
1111.866 
1111.922 
1111.978 
1112.034 
1112.090 
1112.146 
1112.202 
1112.258 
1112.313 
1112.369 
1112.425 
1112.481 
1112.537 
1112.593 
1112.649 
1112.705 
1112.761 
1112.817 
1112.873 
1112.929 
1112.985 
1113.041 
1113.097 
1113.153 
1113.208 
1113.264 
1113.320 
1113.376 
1113.432 
1113.488 
1113.544 
1113.600 
1113.656 
1113.712 
1113.768 
1113.824 
1113.880 
1113.936 
1113.992 
1114.047 
1114.103 
1114.159 
1114.215 
1114.271 
1114.327 
1114.383 
1114.439 
1114.495 
1114.551 
1114.607 
1114.663 
1114.719 
1114.775 
1114.831 
1114.886 
1114.942 
1114.998 
1115.054 
1115.110 
1115.166 
1115.222 
1115.278 
1115.334 
1115.390 
1115.446 
1115.502 
1115.558 
1115.613 
1115.669 
1115.725 
1115.781 
1115.837 
1115.893 
1115.949 
1116.005 
1116.061 
1116.117 
1116.173 
1116.229 
1116.285 
1116.340 
1116.396 
1116.452 
1116.508 
1116.564 
1116.620 
1116.676 
1116.732 
1116.788 
1116.844 
1116.900 
1116.956 
1117.012 
1117.067 
1117.123 
1117.179 
1117.235 
1117.291 
1117.347 
1117.403 
1117.459 
1117.515 
1117.571 
1117.627 
1117.683 
1117.738 
1117.794 
1117.850 
1117.906 
1117.962 
1118.018 
1118.074 
1118.130 
1118.186 
1118.242 
1118.298 
1118.353 
1118.409 
1118.465 
1118.521 
1118.577 
1118.633 
1118.689 
1118.745 
1118.801 
1118.857 
1118.913 
1118.968 
1119.024 
1119.080 
1119.136 
1119.192 
1119.248 
1119.304 
1119.360 
1119.416 
1119.472 
1119.528 
1119.583 
1119.639 
1119.695 
1119.751 
1119.807 
1119.863 
1119.919 
1119.975 
1120.031 
1120.087 
1120.143 
1120.198 
1120.254 
1120.310 
1120.366 
1120.422 
1120.478 
1120.534 
1120.590 
1120.646 
1120.702 
1120.757 
1120.813 
1120.869 
1120.925 
1120.981 
1121.037 
1121.093 
1121.149 
1121.205 
1121.261 
1121.316 
1121.372 
1121.428 
1121.484 
1121.540 
1121.596 
1121.652 
1121.708 
1121.764 
1121.819 
1121.875 
1121.931 
1121.987 
1122.043 
1122.099 
1122.155 
1122.211 
1122.267 
1122.323 
1122.378 
1122.434 
1122.490 
1122.546 
1122.602 
1122.658 
1122.714 
1122.770 
1122.826 
1122.881 
1122.937 
1122.993 
1123.049 
1123.105 
1123.161 
1123.217 
1123.273 
1123.329 
1123.384 
1123.440 
1123.496 
1123.552 
1123.608 
1123.664 
1123.720 
1123.776 
1123.832 
1123.887 
1123.943 
1123.999 
1124.055 
1124.111 
1124.167 
1124.223 
1124.279 
1124.334 
1124.390 
1124.446 
1124.502 
1124.558 
1124.614 
1124.670 
1124.726 
1124.782 
1124.837 
1124.893 
1124.949 
1125.005 
1125.061 
1125.117 
1125.173 
1125.229 
1125.284 
1125.340 
1125.396 
1125.452 
1125.508 
1125.564 
1125.620 
1125.676 
1125.731 
1125.787 
1125.843 
1125.899 
1125.955 
1126.011 
1126.067 
1126.123 
1126.178 
1126.234 
1126.290 
1126.346 
1126.402 
1126.458 
1126.514 
1126.570 
1126.625 
1126.681 
1126.737 
1126.793 
1126.849 
1126.905 
1126.961 
1127.017 
1127.072 
1127.128 
1127.184 
1127.240 
1127.296 
1127.352 
1127.408 
1127.463 
1127.519 
1127.575 
1127.631 
1127.687 
1127.743 
1127.799 
1127.855 
1127.910 
1127.966 
1128.022 
1128.078 
1128.134 
1128.190 
1128.246 
1128.301 
1128.357 
1128.413 
1128.469 
1128.525 
1128.581 
1128.637 
1128.692 
1128.748 
1128.804 
1128.860 
1128.916 
1128.972 
1129.028 
1129.083 
1129.139 
1129.195 
1129.251 
1129.307 
1129.363 
1129.419 
1129.475 
1129.530 
1129.586 
1129.642 
1129.698 
1129.754 
1129.810 
1129.866 
1129.921 
1129.977 
1130.033 
1130.089 
1130.145 
1130.201 
1130.256 
1130.312 
1130.368 
1130.424 
1130.480 
1130.536 
1130.592 
1130.647 
1130.703 
1130.759 
1130.815 
1130.871 
1130.927 
1130.983 
1131.038 
1131.094 
1131.150 
1131.206 
1131.262 
1131.318 
1131.374 
1131.429 
1131.485 
1131.541 
1131.597 
1131.653 
1131.709 
1131.764 
1131.820 
1131.876 
1131.932 
1131.988 
1132.044 
1132.100 
1132.155 
1132.211 
1132.267 
1132.323 
1132.379 
1132.435 
1132.490 
1132.546 
1132.602 
1132.658 
1132.714 
1132.770 
1132.825 
1132.881 
1132.937 
1132.993 
1133.049 
1133.105 
1133.161 
1133.216 
1133.272 
1133.328 
1133.384 
1133.440 
1133.496 
1133.551 
1133.607 
1133.663 
1133.719 
1133.775 
1133.831 
1133.886 
1133.942 
1133.998 
1134.054 
1134.110 
1134.166 
1134.221 
1134.277 
1134.333 
1134.389 
1134.445 
1134.501 
1134.556 
1134.612 
1134.668 
1134.724 
1134.780 
1134.836 
1134.891 
1134.947 
1135.003 
1135.059 
1135.115 
1135.171 
1135.226 
1135.282 
1135.338 
1135.394 
1135.450 
1135.506 
1135.561 
1135.617 
1135.673 
1135.729 
1135.785 
1135.841 
1135.896 
1135.952 
1136.008 
1136.064 
1136.120 
1136.175 
1136.231 
1136.287 
1136.343 
1136.399 
1136.455 
1136.510 
1136.566 
1136.622 
1136.678 
1136.734 
1136.790 
1136.845 
1136.901 
1136.957 
1137.013 
1137.069 
1137.124 
1137.180 
1137.236 
1137.292 
1137.348 
1137.404 
1137.459 
1137.515 
1137.571 
1137.627 
1137.683 
1137.738 
1137.794 
1137.850 
1137.906 
1137.962 
1138.018 
1138.073 
1138.129 
1138.185 
1138.241 
1138.297 
1138.352 
1138.408 
1138.464 
1138.520 
1138.576 
1138.632 
1138.687 
1138.743 
1138.799 
1138.855 
1138.911 
1138.966 
1139.022 
1139.078 
1139.134 
1139.190 
1139.245 
1139.301 
1139.357 
1139.413 
1139.469 
1139.525 
1139.580 
1139.636 
1139.692 
1139.748 
1139.804 
1139.859 
1139.915 
1139.971 
1140.027 
1140.083 
1140.138 
1140.194 
1140.250 
1140.306 
1140.362 
1140.417 
1140.473 
1140.529 
1140.585 
1140.641 
1140.696 
1140.752 
1140.808 
1140.864 
1140.920 
1140.975 
1141.031 
1141.087 
1141.143 
1141.199 
1141.254 
1141.310 
1141.366 
1141.422 
1141.478 
1141.533 
1141.589 
1141.645 
1141.701 
1141.757 
1141.812 
1141.868 
1141.924 
1141.980 
1142.036 
1142.091 
1142.147 
1142.203 
1142.259 
1142.315 
1142.370 
1142.426 
1142.482 
1142.538 
1142.594 
1142.649 
1142.705 
1142.761 
1142.817 
1142.873 
1142.928 
1142.984 
1143.040 
1143.096 
1143.152 
1143.207 
1143.263 
1143.319 
1143.375 
1143.430 
1143.486 
1143.542 
1143.598 
1143.654 
1143.709 
1143.765 
1143.821 
1143.877 
1143.933 
1143.988 
1144.044 
1144.100 
1144.156 
1144.212 
1144.267 
1144.323 
1144.379 
1144.435 
1144.490 
1144.546 
1144.602 
1144.658 
1144.714 
1144.769 
1144.825 
1144.881 
1144.937 
1144.993 
1145.048 
1145.104 
1145.160 
1145.216 
1145.271 
1145.327 
1145.383 
1145.439 
1145.495 
1145.550 
1145.606 
1145.662 
1145.718 
1145.773 
1145.829 
1145.885 
1145.941 
1145.997 
1146.052 
1146.108 
1146.164 
1146.220 
1146.275 
1146.331 
1146.387 
1146.443 
1146.499 
1146.554 
1146.610 
1146.666 
1146.722 
1146.777 
1146.833 
1146.889 
1146.945 
1147.001 
1147.056 
1147.112 
1147.168 
1147.224 
1147.279 
1147.335 
1147.391 
1147.447 
1147.502 
1147.558 
1147.614 
1147.670 
1147.726 
1147.781 
1147.837 
1147.893 
1147.949 
1148.004 
1148.060 
1148.116 
1148.172 
1148.227 
1148.283 
1148.339 
1148.395 
1148.451 
1148.506 
1148.562 
1148.618 
1148.674 
1148.729 
1148.785 
1148.841 
1148.897 
1148.952 
1149.008 
1149.064 
1149.120 
1149.175 
1149.231 
1149.287 
1149.343 
1149.399 
1149.454 
1149.510 
1149.566 
1149.622 
1149.677 
1149.733 
1149.789 
1149.845 
1149.900 
1149.956 
1150.012 
1150.068 
1150.123 
1150.179 
1150.235 
1150.291 
1150.346 
1150.402 
1150.458 
1150.514 
1150.569 
1150.625 
1150.681 
1150.737 
1150.792 
1150.848 
1150.904 
1150.960 
1151.015 
1151.071 
1151.127 
1151.183 
1151.238 
1151.294 
1151.350 
1151.406 
1151.461 
1151.517 
1151.573 
1151.629 
1151.684 
1151.740 
1151.796 
1151.852 
1151.907 
1151.963 
1152.019 
1152.075 
1152.130 
1152.186 
1152.242 
1152.298 
1152.353 
1152.409 
1152.465 
1152.521 
1152.576 
1152.632 
1152.688 
1152.744 
1152.799 
1152.855 
1152.911 
1152.967 
1153.022 
1153.078 
1153.134 
1153.190 
1153.245 
1153.301 
1153.357 
1153.413 
1153.468 
1153.524 
1153.580 
1153.636 
1153.691 
1153.747 
1153.803 
1153.859 
1153.914 
1153.970 
1154.026 
1154.082 
1154.137 
1154.193 
1154.249 
1154.304 
1154.360 
1154.416 
1154.472 
1154.527 
1154.583 
1154.639 
1154.695 
1154.750 
1154.806 
1154.862 
1154.918 
1154.973 
1155.029 
1155.085 
1155.140 
1155.196 
1155.252 
1155.308 
1155.363 
1155.419 
1155.475 
1155.531 
1155.586 
1155.642 
1155.698 
1155.754 
1155.809 
1155.865 
1155.921 
1155.976 
1156.032 
1156.088 
1156.144 
1156.199 
1156.255 
1156.311 
1156.367 
1156.422 
1156.478 
1156.534 
1156.589 
1156.645 
1156.701 
1156.757 
1156.812 
1156.868 
1156.924 
1156.980 
1157.035 
1157.091 
1157.147 
1157.202 
1157.258 
1157.314 
1157.370 
1157.425 
1157.481 
1157.537 
1157.593 
1157.648 
1157.704 
1157.760 
1157.815 
1157.871 
1157.927 
1157.983 
1158.038 
1158.094 
1158.150 
1158.205 
1158.261 
1158.317 
1158.373 
1158.428 
1158.484 
1158.540 
1158.595 
1158.651 
1158.707 
1158.763 
1158.818 
1158.874 
1158.930 
1158.985 
1159.041 
1159.097 
1159.153 
1159.208 
1159.264 
1159.320 
1159.375 
1159.431 
1159.487 
1159.543 
1159.598 
1159.654 
1159.710 
1159.765 
1159.821 
1159.877 
1159.933 
1159.988 
1160.044 
1160.100 
1160.155 
1160.211 
1160.267 
1160.323 
1160.378 
1160.434 
1160.490 
1160.545 
1160.601 
1160.657 
1160.712 
1160.768 
1160.824 
1160.880 
1160.935 
1160.991 
1161.047 
1161.102 
1161.158 
1161.214 
1161.270 
1161.325 
1161.381 
1161.437 
1161.492 
1161.548 
1161.604 
1161.659 
1161.715 
1161.771 
1161.827 
1161.882 
1161.938 
1161.994 
1162.049 
1162.105 
1162.161 
1162.216 
1162.272 
1162.328 
1162.384 
1162.439 
1162.495 
1162.551 
1162.606 
1162.662 
1162.718 
1162.773 
1162.829 
1162.885 
1162.941 
1162.996 
1163.052 
1163.108 
1163.163 
1163.219 
1163.275 
1163.330 
1163.386 
1163.442 
1163.497 
1163.553 
1163.609 
1163.665 
1163.720 
1163.776 
1163.832 
1163.887 
1163.943 
1163.999 
1164.054 
1164.110 
1164.166 
1164.221 
1164.277 
1164.333 
1164.389 
1164.444 
1164.500 
1164.556 
1164.611 
1164.667 
1164.723 
1164.778 
1164.834 
1164.890 
1164.945 
1165.001 
1165.057 
1165.112 
1165.168 
1165.224 
1165.280 
1165.335 
1165.391 
1165.447 
1165.502 
1165.558 
1165.614 
1165.669 
1165.725 
1165.781 
1165.836 
1165.892 
1165.948 
1166.003 
1166.059 
1166.115 
1166.170 
1166.226 
1166.282 
1166.337 
1166.393 
1166.449 
1166.505 
1166.560 
1166.616 
1166.672 
1166.727 
1166.783 
1166.839 
1166.894 
1166.950 
1167.006 
1167.061 
1167.117 
1167.173 
1167.228 
1167.284 
1167.340 
1167.395 
1167.451 
1167.507 
1167.562 
1167.618 
1167.674 
1167.729 
1167.785 
1167.841 
1167.896 
1167.952 
1168.008 
1168.063 
1168.119 
1168.175 
1168.230 
1168.286 
1168.342 
1168.397 
1168.453 
1168.509 
1168.564 
1168.620 
1168.676 
1168.731 
1168.787 
1168.843 
1168.898 
1168.954 
1169.010 
1169.065 
1169.121 
1169.177 
1169.232 
1169.288 
1169.344 
1169.399 
1169.455 
1169.511 
1169.566 
1169.622 
1169.678 
1169.733 
1169.789 
1169.845 
1169.900 
1169.956 
1170.012 
1170.067 
1170.123 
1170.179 
1170.234 
1170.290 
1170.346 
1170.401 
1170.457 
1170.513 
1170.568 
1170.624 
1170.680 
1170.735 
1170.791 
1170.847 
1170.902 
1170.958 
1171.014 
1171.069 
1171.125 
1171.181 
1171.236 
1171.292 
1171.348 
1171.403 
1171.459 
1171.514 
1171.570 
1171.626 
1171.681 
1171.737 
1171.793 
1171.848 
1171.904 
1171.960 
1172.015 
1172.071 
1172.127 
1172.182 
1172.238 
1172.294 
1172.349 
1172.405 
1172.461 
1172.516 
1172.572 
1172.627 
1172.683 
1172.739 
1172.794 
1172.850 
1172.906 
1172.961 
1173.017 
1173.073 
1173.128 
1173.184 
1173.240 
1173.295 
1173.351 
1173.407 
1173.462 
1173.518 
1173.573 
1173.629 
1173.685 
1173.740 
1173.796 
1173.852 
1173.907 
1173.963 
1174.019 
1174.074 
1174.130 
1174.186 
1174.241 
1174.297 
1174.352 
1174.408 
1174.464 
1174.519 
1174.575 
1174.631 
1174.686 
1174.742 
1174.798 
1174.853 
1174.909 
1174.965 
1175.020 
1175.076 
1175.131 
1175.187 
1175.243 
1175.298 
1175.354 
1175.410 
1175.465 
1175.521 
1175.577 
1175.632 
1175.688 
1175.743 
1175.799 
1175.855 
1175.910 
1175.966 
1176.022 
1176.077 
1176.133 
1176.188 
1176.244 
1176.300 
1176.355 
1176.411 
1176.467 
1176.522 
1176.578 
1176.634 
1176.689 
1176.745 
1176.800 
1176.856 
1176.912 
1176.967 
1177.023 
1177.079 
1177.134 
1177.190 
1177.245 
1177.301 
1177.357 
1177.412 
1177.468 
1177.524 
1177.579 
1177.635 
1177.690 
1177.746 
1177.802 
1177.857 
1177.913 
1177.969 
1178.024 
1178.080 
1178.135 
1178.191 
1178.247 
1178.302 
1178.358 
1178.414 
1178.469 
1178.525 
1178.580 
1178.636 
1178.692 
1178.747 
1178.803 
1178.858 
1178.914 
1178.970 
1179.025 
1179.081 
1179.137 
1179.192 
1179.248 
1179.303 
1179.359 
1179.415 
1179.470 
1179.526 
1179.581 
1179.637 
1179.693 
1179.748 
1179.804 
1179.860 
1179.915 
1179.971 
1180.026 
1180.082 
1180.138 
1180.193 
1180.249 
1180.304 
1180.360 
1180.416 
1180.471 
1180.527 
1180.583 
1180.638 
1180.694 
1180.749 
1180.805 
1180.861 
1180.916 
1180.972 
1181.027 
1181.083 
1181.139 
1181.194 
1181.250 
1181.305 
1181.361 
1181.417 
1181.472 
1181.528 
1181.583 
1181.639 
1181.695 
1181.750 
1181.806 
1181.861 
1181.917 
1181.973 
1182.028 
1182.084 
1182.139 
1182.195 
1182.251 
1182.306 
1182.362 
1182.417 
1182.473 
1182.529 
1182.584 
1182.640 
1182.695 
1182.751 
1182.807 
1182.862 
1182.918 
1182.973 
1183.029 
1183.085 
1183.140 
1183.196 
1183.251 
1183.307 
1183.363 
1183.418 
1183.474 
1183.529 
1183.585 
1183.641 
1183.696 
1183.752 
1183.807 
1183.863 
1183.919 
1183.974 
1184.030 
1184.085 
1184.141 
1184.197 
1184.252 
1184.308 
1184.363 
1184.419 
1184.475 
1184.530 
1184.586 
1184.641 
1184.697 
1184.753 
1184.808 
1184.864 
1184.919 
1184.975 
1185.030 
1185.086 
1185.142 
1185.197 
1185.253 
1185.308 
1185.364 
1185.420 
1185.475 
1185.531 
1185.586 
1185.642 
1185.697 
1185.753 
1185.809 
1185.864 
1185.920 
1185.975 
1186.031 
1186.087 
1186.142 
1186.198 
1186.253 
1186.309 
1186.364 
1186.420 
1186.476 
1186.531 
1186.587 
1186.642 
1186.698 
1186.754 
1186.809 
1186.865 
1186.920 
1186.976 
1187.031 
1187.087 
1187.143 
1187.198 
1187.254 
1187.309 
1187.365 
1187.421 
1187.476 
1187.532 
1187.587 
1187.643 
1187.698 
1187.754 
1187.810 
1187.865 
1187.921 
1187.976 
1188.032 
1188.087 
1188.143 
1188.199 
1188.254 
1188.310 
1188.365 
1188.421 
1188.476 
1188.532 
1188.588 
1188.643 
1188.699 
1188.754 
1188.810 
1188.865 
1188.921 
1188.977 
1189.032 
1189.088 
1189.143 
1189.199 
1189.254 
1189.310 
1189.366 
1189.421 
1189.477 
1189.532 
1189.588 
1189.643 
1189.699 
1189.755 
1189.810 
1189.866 
1189.921 
1189.977 
1190.032 
1190.088 
1190.143 
1190.199 
1190.255 
1190.310 
1190.366 
1190.421 
1190.477 
1190.532 
1190.588 
1190.644 
1190.699 
1190.755 
1190.810 
1190.866 
1190.921 
1190.977 
1191.032 
1191.088 
1191.144 
1191.199 
1191.255 
1191.310 
1191.366 
1191.421 
1191.477 
1191.532 
1191.588 
1191.644 
1191.699 
1191.755 
1191.810 
1191.866 
1191.921 
1191.977 
1192.032 
1192.088 
1192.144 
1192.199 
1192.255 
1192.310 
1192.366 
1192.421 
1192.477 
1192.532 
1192.588 
1192.644 
1192.699 
1192.755 
1192.810 
1192.866 
1192.921 
1192.977 
1193.032 
1193.088 
1193.143 
1193.199 
1193.255 
1193.310 
1193.366 
1193.421 
1193.477 
1193.532 
1193.588 
1193.643 
1193.699 
1193.755 
1193.810 
1193.866 
1193.921 
1193.977 
1194.032 
1194.088 
1194.143 
1194.199 
1194.254 
1194.310 
1194.366 
1194.421 
1194.477 
1194.532 
1194.588 
1194.643 
1194.699 
1194.754 
1194.810 
1194.865 
1194.921 
1194.976 
1195.032 
1195.088 
1195.143 
1195.199 
1195.254 
1195.310 
1195.365 
1195.421 
1195.476 
1195.532 
1195.587 
1195.643 
1195.698 
1195.754 
1195.810 
1195.865 
1195.921 
1195.976 
1196.032 
1196.087 
1196.143 
1196.198 
1196.254 
1196.309 
1196.365 
1196.420 
1196.476 
1196.531 
1196.587 
1196.643 
1196.698 
1196.754 
1196.809 
1196.865 
1196.920 
1196.976 
1197.031 
1197.087 
1197.142 
1197.198 
1197.253 
1197.309 
1197.364 
1197.420 
1197.476 
1197.531 
1197.587 
1197.642 
1197.698 
1197.753 
1197.809 
1197.864 
1197.920 
1197.975 
1198.031 
1198.086 
1198.142 
1198.197 
1198.253 
1198.308 
1198.364 
1198.419 
1198.475 
1198.530 
1198.586 
1198.642 
1198.697 
1198.753 
1198.808 
1198.864 
1198.919 
1198.975 
1199.030 
1199.086 
1199.141 
1199.197 
1199.252 
1199.308 
1199.363 
1199.419 
1199.474 
1199.530 
1199.585 
1199.641 
1199.696 
1199.752 
1199.807 
1199.863 
1199.918 
1199.974 
1200.030 
1200.085 
1200.141 
1200.196 
1200.252 
1200.307 
1200.363 
1200.418 
1200.474 
1200.529 
1200.585 
1200.640 
1200.696 
1200.751 
1200.807 
1200.862 
1200.918 
1200.973 
1201.029 
1201.084 
1201.140 
1201.195 
1201.251 
1201.306 
1201.362 
1201.417 
1201.473 
1201.528 
1201.584 
1201.639 
1201.695 
1201.750 
1201.806 
1201.861 
1201.917 
1201.972 
1202.028 
1202.083 
1202.139 
1202.194 
1202.250 
1202.305 
1202.361 
1202.416 
1202.472 
1202.527 
1202.583 
1202.638 
1202.694 
1202.749 
1202.805 
1202.860 
1202.916 
1202.971 
1203.027 
1203.082 
1203.138 
1203.193 
1203.249 
1203.304 
1203.360 
1203.415 
1203.471 
1203.526 
1203.582 
1203.637 
1203.693 
1203.748 
1203.804 
1203.859 
1203.915 
1203.970 
1204.026 
1204.081 
1204.137 
1204.192 
1204.248 
1204.303 
1204.359 
1204.414 
1204.470 
1204.525 
1204.581 
1204.636 
1204.692 
1204.747 
1204.803 
1204.858 
1204.914 
1204.969 
1205.025 
1205.080 
1205.136 
1205.191 
1205.247 
1205.302 
1205.358 
1205.413 
1205.469 
1205.524 
1205.580 
1205.635 
1205.691 
1205.746 
1205.802 
1205.857 
1205.913 
1205.968 
1206.024 
1206.079 
1206.135 
1206.190 
1206.246 
1206.301 
1206.357 
1206.412 
1206.468 
1206.523 
1206.578 
1206.634 
1206.689 
1206.745 
1206.800 
1206.856 
1206.911 
1206.967 
1207.022 
1207.078 
1207.133 
1207.189 
1207.244 
1207.300 
1207.355 
1207.411 
1207.466 
1207.522 
1207.577 
1207.633 
1207.688 
1207.744 
1207.799 
1207.855 
1207.910 
1207.965 
1208.021 
1208.076 
1208.132 
1208.187 
1208.243 
1208.298 
1208.354 
1208.409 
1208.465 
1208.520 
1208.576 
1208.631 
1208.687 
1208.742 
1208.798 
1208.853 
1208.909 
1208.964 
1209.019 
1209.075 
1209.130 
1209.186 
1209.241 
1209.297 
1209.352 
1209.408 
1209.463 
1209.519 
1209.574 
1209.630 
1209.685 
1209.741 
1209.796 
1209.852 
1209.907 
1209.962 
1210.018 
1210.073 
1210.129 
1210.184 
1210.240 
1210.295 
1210.351 
1210.406 
1210.462 
1210.517 
1210.573 
1210.628 
1210.684 
1210.739 
1210.794 
1210.850 
1210.905 
1210.961 
1211.016 
1211.072 
1211.127 
1211.183 
