# Wavelength table for hrs,echb,21
2613.000 
2613.030 
2613.060 
2613.089 
2613.119 
2613.149 
2613.179 
2613.209 
2613.238 
2613.268 
2613.298 
2613.328 
2613.358 
2613.387 
2613.417 
2613.447 
2613.477 
2613.506 
2613.536 
2613.566 
2613.596 
2613.626 
2613.655 
2613.685 
2613.715 
2613.745 
2613.774 
2613.804 
2613.834 
2613.864 
2613.894 
2613.923 
2613.953 
2613.983 
2614.013 
2614.042 
2614.072 
2614.102 
2614.132 
2614.161 
2614.191 
2614.221 
2614.251 
2614.281 
2614.310 
2614.340 
2614.370 
2614.400 
2614.429 
2614.459 
2614.489 
2614.519 
2614.548 
2614.578 
2614.608 
2614.638 
2614.667 
2614.697 
2614.727 
2614.757 
2614.786 
2614.816 
2614.846 
2614.876 
2614.905 
2614.935 
2614.965 
2614.994 
2615.024 
2615.054 
2615.084 
2615.113 
2615.143 
2615.173 
2615.203 
2615.232 
2615.262 
2615.292 
2615.321 
2615.351 
2615.381 
2615.411 
2615.440 
2615.470 
2615.500 
2615.530 
2615.559 
2615.589 
2615.619 
2615.648 
2615.678 
2615.708 
2615.738 
2615.767 
2615.797 
2615.827 
2615.856 
2615.886 
2615.916 
2615.946 
2615.975 
2616.005 
2616.035 
2616.064 
2616.094 
2616.124 
2616.153 
2616.183 
2616.213 
2616.243 
2616.272 
2616.302 
2616.332 
2616.361 
2616.391 
2616.421 
2616.450 
2616.480 
2616.510 
2616.539 
2616.569 
2616.599 
2616.628 
2616.658 
2616.688 
2616.718 
2616.747 
2616.777 
2616.807 
2616.836 
2616.866 
2616.896 
2616.925 
2616.955 
2616.985 
2617.014 
2617.044 
2617.074 
2617.103 
2617.133 
2617.163 
2617.192 
2617.222 
2617.252 
2617.281 
2617.311 
2617.341 
2617.370 
2617.400 
2617.430 
2617.459 
2617.489 
2617.519 
2617.548 
2617.578 
2617.608 
2617.637 
2617.667 
2617.696 
2617.726 
2617.756 
2617.785 
2617.815 
2617.845 
2617.874 
2617.904 
2617.934 
2617.963 
2617.993 
2618.023 
2618.052 
2618.082 
2618.111 
2618.141 
2618.171 
2618.200 
2618.230 
2618.260 
2618.289 
2618.319 
2618.349 
2618.378 
2618.408 
2618.437 
2618.467 
2618.497 
2618.526 
2618.556 
2618.586 
2618.615 
2618.645 
2618.674 
2618.704 
2618.734 
2618.763 
2618.793 
2618.822 
2618.852 
2618.882 
2618.911 
2618.941 
2618.970 
2619.000 
2619.030 
2619.059 
2619.089 
2619.119 
2619.148 
2619.178 
2619.207 
2619.237 
2619.267 
2619.296 
2619.326 
2619.355 
2619.385 
2619.414 
2619.444 
2619.474 
2619.503 
2619.533 
2619.562 
2619.592 
2619.622 
2619.651 
2619.681 
2619.710 
2619.740 
2619.770 
2619.799 
2619.829 
2619.858 
2619.888 
2619.917 
2619.947 
2619.977 
2620.006 
2620.036 
2620.065 
2620.095 
2620.124 
2620.154 
2620.184 
2620.213 
2620.243 
2620.272 
2620.302 
2620.331 
2620.361 
2620.391 
2620.420 
2620.450 
2620.479 
2620.509 
2620.538 
2620.568 
2620.597 
2620.627 
2620.657 
2620.686 
2620.716 
2620.745 
2620.775 
2620.804 
2620.834 
2620.863 
2620.893 
2620.923 
2620.952 
2620.982 
2621.011 
2621.041 
2621.070 
2621.100 
2621.129 
2621.159 
2621.188 
2621.218 
2621.247 
2621.277 
2621.307 
2621.336 
2621.366 
2621.395 
2621.425 
2621.454 
2621.484 
2621.513 
2621.543 
2621.572 
2621.602 
2621.631 
2621.661 
2621.690 
2621.720 
2621.749 
2621.779 
2621.808 
2621.838 
2621.867 
2621.897 
2621.926 
2621.956 
2621.986 
2622.015 
2622.045 
2622.074 
2622.104 
2622.133 
2622.163 
2622.192 
2622.222 
2622.251 
2622.281 
2622.310 
2622.340 
2622.369 
2622.399 
2622.428 
2622.458 
2622.487 
2622.517 
2622.546 
2622.576 
2622.605 
2622.634 
2622.664 
2622.693 
2622.723 
2622.752 
2622.782 
2622.811 
2622.841 
2622.870 
2622.900 
2622.929 
2622.959 
2622.988 
2623.018 
2623.047 
2623.077 
2623.106 
2623.136 
2623.165 
2623.195 
2623.224 
2623.254 
2623.283 
2623.312 
2623.342 
2623.371 
2623.401 
2623.430 
2623.460 
2623.489 
2623.519 
2623.548 
2623.578 
2623.607 
2623.637 
2623.666 
2623.695 
2623.725 
2623.754 
2623.784 
2623.813 
2623.843 
2623.872 
2623.902 
2623.931 
2623.961 
2623.990 
2624.019 
2624.049 
2624.078 
2624.108 
2624.137 
2624.167 
2624.196 
2624.226 
2624.255 
2624.284 
2624.314 
2624.343 
2624.373 
2624.402 
2624.432 
2624.461 
2624.490 
2624.520 
2624.549 
2624.579 
2624.608 
2624.638 
2624.667 
2624.696 
2624.726 
2624.755 
2624.785 
2624.814 
2624.844 
2624.873 
2624.902 
2624.932 
2624.961 
2624.991 
2625.020 
2625.049 
2625.079 
2625.108 
2625.138 
2625.167 
2625.196 
2625.226 
2625.255 
2625.285 
2625.314 
2625.343 
2625.373 
2625.402 
2625.432 
2625.461 
2625.490 
2625.520 
2625.549 
2625.579 
2625.608 
2625.637 
2625.667 
2625.696 
2625.726 
2625.755 
2625.784 
2625.814 
2625.843 
2625.873 
2625.902 
2625.931 
2625.961 
2625.990 
2626.019 
2626.049 
2626.078 
2626.108 
2626.137 
2626.166 
2626.196 
2626.225 
2626.254 
2626.284 
2626.313 
2626.343 
2626.372 
2626.401 
2626.431 
2626.460 
2626.489 
2626.519 
2626.548 
2626.577 
2626.607 
2626.636 
2626.666 
2626.695 
2626.724 
2626.754 
2626.783 
2626.812 
2626.842 
2626.871 
2626.900 
2626.930 
2626.959 
2626.988 
2627.018 
2627.047 
2627.076 
2627.106 
2627.135 
2627.165 
2627.194 
2627.223 
2627.253 
2627.282 
2627.311 
2627.341 
2627.370 
2627.399 
2627.429 
2627.458 
2627.487 
2627.517 
2627.546 
2627.575 
2627.605 
2627.634 
2627.663 
2627.693 
2627.722 
2627.751 
2627.780 
2627.810 
2627.839 
2627.868 
2627.898 
2627.927 
2627.956 
2627.986 
2628.015 
2628.044 
2628.074 
2628.103 
2628.132 
2628.162 
2628.191 
2628.220 
2628.250 
2628.279 
2628.308 
2628.337 
2628.367 
2628.396 
2628.425 
2628.455 
2628.484 
2628.513 
2628.543 
2628.572 
2628.601 
2628.630 
2628.660 
2628.689 
2628.718 
2628.748 
2628.777 
2628.806 
2628.835 
2628.865 
2628.894 
2628.923 
2628.953 
2628.982 
2629.011 
2629.040 
2629.070 
2629.099 
2629.128 
2629.158 
2629.187 
2629.216 
2629.245 
2629.275 
2629.304 
2629.333 
2629.362 
2629.392 
2629.421 
2629.450 
2629.480 
2629.509 
2629.538 
2629.567 
2629.597 
2629.626 
2629.655 
2629.684 
2629.714 
2629.743 
2629.772 
2629.801 
2629.831 
2629.860 
2629.889 
2629.918 
2629.948 
2629.977 
2630.006 
2630.035 
2630.065 
2630.094 
2630.123 
2630.152 
2630.182 
2630.211 
2630.240 
2630.269 
2630.299 
2630.328 
2630.357 
2630.386 
2630.416 
2630.445 
2630.474 
2630.503 
2630.533 
2630.562 
2630.591 
2630.620 
2630.649 
2630.679 
2630.708 
2630.737 
2630.766 
2630.796 
2630.825 
2630.854 
2630.883 
2630.912 
2630.942 
2630.971 
2631.000 
2631.029 
2631.059 
2631.088 
2631.117 
2631.146 
2631.175 
2631.205 
2631.234 
2631.263 
2631.292 
2631.321 
2631.351 
2631.380 
2631.409 
2631.438 
2631.467 
2631.497 
2631.526 
2631.555 
2631.584 
2631.613 
2631.643 
2631.672 
2631.701 
2631.730 
2631.759 
2631.789 
2631.818 
2631.847 
2631.876 
2631.905 
2631.935 
2631.964 
2631.993 
2632.022 
2632.051 
2632.080 
2632.110 
2632.139 
2632.168 
2632.197 
2632.226 
2632.256 
2632.285 
2632.314 
2632.343 
2632.372 
2632.401 
2632.431 
2632.460 
2632.489 
2632.518 
2632.547 
2632.576 
2632.606 
2632.635 
2632.664 
2632.693 
2632.722 
2632.751 
2632.781 
2632.810 
2632.839 
2632.868 
2632.897 
2632.926 
2632.955 
2632.985 
2633.014 
2633.043 
2633.072 
2633.101 
2633.130 
2633.160 
2633.189 
2633.218 
2633.247 
2633.276 
2633.305 
2633.334 
2633.364 
2633.393 
2633.422 
2633.451 
2633.480 
2633.509 
2633.538 
2633.567 
2633.597 
2633.626 
2633.655 
2633.684 
2633.713 
2633.742 
2633.771 
2633.800 
2633.830 
2633.859 
2633.888 
2633.917 
2633.946 
2633.975 
2634.004 
2634.033 
2634.063 
2634.092 
2634.121 
2634.150 
2634.179 
2634.208 
2634.237 
2634.266 
2634.295 
2634.325 
2634.354 
2634.383 
2634.412 
2634.441 
2634.470 
2634.499 
2634.528 
2634.557 
2634.587 
2634.616 
2634.645 
2634.674 
2634.703 
2634.732 
2634.761 
2634.790 
2634.819 
2634.848 
2634.877 
2634.907 
2634.936 
2634.965 
2634.994 
2635.023 
2635.052 
2635.081 
2635.110 
2635.139 
2635.168 
2635.197 
2635.226 
2635.256 
2635.285 
2635.314 
2635.343 
2635.372 
2635.401 
2635.430 
2635.459 
2635.488 
2635.517 
2635.546 
2635.575 
2635.604 
2635.633 
2635.663 
2635.692 
2635.721 
2635.750 
2635.779 
2635.808 
2635.837 
2635.866 
2635.895 
2635.924 
2635.953 
2635.982 
2636.011 
2636.040 
2636.069 
2636.098 
2636.127 
2636.156 
2636.186 
2636.215 
2636.244 
2636.273 
2636.302 
2636.331 
2636.360 
2636.389 
2636.418 
2636.447 
2636.476 
2636.505 
2636.534 
2636.563 
2636.592 
2636.621 
2636.650 
2636.679 
2636.708 
2636.737 
2636.766 
2636.795 
2636.824 
2636.853 
2636.882 
2636.911 
2636.940 
2636.969 
2636.998 
2637.027 
2637.056 
2637.086 
2637.115 
2637.144 
2637.173 
2637.202 
2637.231 
2637.260 
2637.289 
2637.318 
2637.347 
2637.376 
2637.405 
2637.434 
2637.463 
2637.492 
2637.521 
2637.550 
2637.579 
2637.608 
2637.637 
2637.666 
2637.695 
2637.724 
2637.753 
2637.782 
2637.811 
2637.840 
2637.869 
2637.898 
2637.927 
2637.956 
2637.985 
2638.014 
2638.043 
2638.072 
2638.101 
2638.129 
2638.158 
2638.187 
2638.216 
2638.245 
2638.274 
2638.303 
2638.332 
2638.361 
2638.390 
2638.419 
2638.448 
2638.477 
2638.506 
2638.535 
2638.564 
2638.593 
2638.622 
2638.651 
2638.680 
2638.709 
2638.738 
2638.767 
2638.796 
2638.825 
2638.854 
2638.883 
2638.912 
2638.941 
2638.970 
2638.999 
2639.027 
2639.056 
2639.085 
2639.114 
2639.143 
2639.172 
2639.201 
2639.230 
2639.259 
2639.288 
2639.317 
2639.346 
2639.375 
2639.404 
2639.433 
2639.462 
2639.491 
2639.520 
2639.548 
2639.577 
2639.606 
2639.635 
2639.664 
2639.693 
2639.722 
2639.751 
2639.780 
2639.809 
2639.838 
2639.867 
2639.896 
2639.925 
2639.953 
2639.982 
2640.011 
2640.040 
2640.069 
2640.098 
2640.127 
2640.156 
2640.185 
2640.214 
2640.243 
2640.272 
2640.300 
2640.329 
2640.358 
2640.387 
2640.416 
2640.445 
2640.474 
2640.503 
2640.532 
2640.561 
2640.590 
2640.618 
2640.647 
2640.676 
2640.705 
2640.734 
2640.763 
2640.792 
2640.821 
2640.850 
2640.879 
2640.907 
2640.936 
2640.965 
2640.994 
2641.023 
2641.052 
2641.081 
2641.110 
2641.138 
2641.167 
2641.196 
2641.225 
2641.254 
2641.283 
2641.312 
2641.341 
2641.370 
2641.398 
2641.427 
2641.456 
2641.485 
2641.514 
2641.543 
2641.572 
2641.600 
2641.629 
2641.658 
2641.687 
2641.716 
2641.745 
2641.774 
2641.803 
2641.831 
2641.860 
2641.889 
2641.918 
2641.947 
2641.976 
2642.005 
2642.033 
2642.062 
2642.091 
2642.120 
2642.149 
2642.178 
2642.207 
2642.235 
2642.264 
2642.293 
2642.322 
2642.351 
2642.380 
2642.408 
2642.437 
2642.466 
2642.495 
2642.524 
2642.553 
2642.581 
2642.610 
2642.639 
2642.668 
2642.697 
2642.726 
2642.754 
2642.783 
2642.812 
2642.841 
2642.870 
2642.899 
2642.927 
2642.956 
2642.985 
2643.014 
2643.043 
2643.072 
2643.100 
2643.129 
2643.158 
2643.187 
2643.216 
2643.244 
2643.273 
2643.302 
2643.331 
2643.360 
2643.388 
2643.417 
2643.446 
2643.475 
2643.504 
2643.532 
2643.561 
2643.590 
2643.619 
2643.648 
2643.676 
2643.705 
2643.734 
2643.763 
2643.792 
2643.820 
2643.849 
2643.878 
2643.907 
2643.936 
2643.964 
2643.993 
2644.022 
2644.051 
2644.080 
2644.108 
2644.137 
2644.166 
2644.195 
2644.223 
2644.252 
2644.281 
2644.310 
2644.339 
2644.367 
2644.396 
2644.425 
2644.454 
2644.482 
2644.511 
2644.540 
2644.569 
2644.598 
2644.626 
2644.655 
2644.684 
2644.713 
2644.741 
2644.770 
2644.799 
2644.828 
2644.856 
2644.885 
2644.914 
2644.943 
2644.971 
2645.000 
2645.029 
2645.058 
2645.086 
2645.115 
2645.144 
2645.173 
2645.201 
2645.230 
2645.259 
2645.288 
2645.316 
2645.345 
2645.374 
2645.403 
2645.431 
2645.460 
2645.489 
2645.518 
2645.546 
2645.575 
2645.604 
2645.633 
2645.661 
2645.690 
2645.719 
2645.748 
2645.776 
2645.805 
2645.834 
2645.862 
2645.891 
2645.920 
2645.949 
2645.977 
2646.006 
2646.035 
2646.064 
2646.092 
2646.121 
2646.150 
2646.178 
2646.207 
2646.236 
2646.265 
2646.293 
2646.322 
2646.351 
2646.379 
2646.408 
2646.437 
2646.465 
2646.494 
2646.523 
2646.552 
2646.580 
2646.609 
2646.638 
2646.666 
2646.695 
2646.724 
2646.752 
2646.781 
2646.810 
2646.839 
2646.867 
2646.896 
2646.925 
2646.953 
2646.982 
2647.011 
2647.039 
2647.068 
2647.097 
2647.125 
2647.154 
2647.183 
2647.212 
2647.240 
2647.269 
2647.298 
2647.326 
2647.355 
2647.384 
2647.412 
2647.441 
2647.470 
2647.498 
2647.527 
2647.556 
2647.584 
2647.613 
2647.642 
2647.670 
2647.699 
2647.728 
2647.756 
2647.785 
2647.814 
2647.842 
2647.871 
2647.900 
2647.928 
2647.957 
2647.986 
2648.014 
2648.043 
2648.072 
2648.100 
2648.129 
2648.157 
2648.186 
2648.215 
2648.243 
2648.272 
2648.301 
2648.329 
2648.358 
2648.387 
2648.415 
2648.444 
2648.473 
2648.501 
2648.530 
2648.558 
2648.587 
2648.616 
2648.644 
2648.673 
2648.702 
2648.730 
2648.759 
2648.788 
2648.816 
2648.845 
2648.873 
2648.902 
2648.931 
2648.959 
2648.988 
2649.017 
2649.045 
2649.074 
2649.102 
2649.131 
2649.160 
2649.188 
2649.217 
2649.245 
2649.274 
2649.303 
2649.331 
2649.360 
2649.389 
2649.417 
2649.446 
2649.474 
2649.503 
2649.532 
2649.560 
2649.589 
2649.617 
2649.646 
2649.675 
2649.703 
2649.732 
2649.760 
2649.789 
2649.818 
2649.846 
2649.875 
2649.903 
2649.932 
2649.961 
2649.989 
2650.018 
2650.046 
2650.075 
2650.103 
2650.132 
2650.161 
2650.189 
2650.218 
2650.246 
2650.275 
2650.304 
2650.332 
2650.361 
2650.389 
2650.418 
2650.446 
2650.475 
2650.504 
2650.532 
2650.561 
2650.589 
2650.618 
2650.646 
2650.675 
2650.704 
2650.732 
2650.761 
2650.789 
2650.818 
2650.846 
2650.875 
2650.903 
2650.932 
2650.961 
2650.989 
2651.018 
2651.046 
2651.075 
2651.103 
2651.132 
2651.160 
2651.189 
2651.218 
2651.246 
2651.275 
2651.303 
2651.332 
2651.360 
2651.389 
2651.417 
2651.446 
2651.474 
2651.503 
2651.531 
2651.560 
2651.589 
2651.617 
2651.646 
2651.674 
2651.703 
2651.731 
2651.760 
2651.788 
2651.817 
2651.845 
2651.874 
2651.902 
2651.931 
2651.959 
2651.988 
2652.016 
2652.045 
2652.074 
2652.102 
2652.131 
2652.159 
2652.188 
2652.216 
2652.245 
2652.273 
2652.302 
2652.330 
2652.359 
2652.387 
2652.416 
2652.444 
2652.473 
2652.501 
2652.530 
2652.558 
2652.587 
2652.615 
2652.644 
2652.672 
2652.701 
2652.729 
2652.758 
2652.786 
2652.815 
2652.843 
2652.872 
2652.900 
2652.929 
2652.957 
2652.986 
2653.014 
2653.043 
2653.071 
2653.100 
2653.128 
2653.157 
2653.185 
2653.213 
2653.242 
2653.270 
2653.299 
2653.327 
2653.356 
2653.384 
2653.413 
2653.441 
2653.470 
2653.498 
2653.527 
2653.555 
2653.584 
2653.612 
2653.641 
2653.669 
2653.698 
2653.726 
2653.754 
2653.783 
2653.811 
2653.840 
2653.868 
2653.897 
2653.925 
2653.954 
2653.982 
2654.011 
2654.039 
2654.067 
2654.096 
2654.124 
2654.153 
2654.181 
2654.210 
2654.238 
2654.267 
2654.295 
2654.323 
2654.352 
2654.380 
2654.409 
2654.437 
2654.466 
2654.494 
2654.523 
2654.551 
2654.579 
2654.608 
2654.636 
2654.665 
2654.693 
2654.722 
2654.750 
2654.778 
2654.807 
2654.835 
2654.864 
2654.892 
2654.921 
2654.949 
2654.977 
2655.006 
2655.034 
2655.063 
2655.091 
2655.120 
2655.148 
2655.176 
2655.205 
2655.233 
2655.262 
2655.290 
2655.318 
2655.347 
2655.375 
2655.404 
2655.432 
2655.460 
2655.489 
2655.517 
2655.546 
2655.574 
2655.602 
2655.631 
2655.659 
2655.688 
2655.716 
2655.744 
2655.773 
2655.801 
2655.830 
2655.858 
2655.886 
2655.915 
2655.943 
2655.972 
2656.000 
2656.028 
2656.057 
2656.085 
2656.114 
2656.142 
2656.170 
2656.199 
2656.227 
2656.255 
2656.284 
2656.312 
2656.341 
2656.369 
2656.397 
2656.426 
2656.454 
2656.482 
2656.511 
2656.539 
2656.568 
2656.596 
2656.624 
2656.653 
2656.681 
2656.709 
2656.738 
2656.766 
2656.794 
2656.823 
2656.851 
2656.880 
2656.908 
2656.936 
2656.965 
2656.993 
2657.021 
2657.050 
2657.078 
2657.106 
2657.135 
2657.163 
2657.191 
2657.220 
2657.248 
2657.276 
2657.305 
2657.333 
2657.361 
2657.390 
2657.418 
2657.446 
2657.475 
2657.503 
2657.531 
2657.560 
2657.588 
2657.616 
2657.645 
2657.673 
2657.701 
2657.730 
2657.758 
2657.786 
2657.815 
2657.843 
2657.871 
2657.900 
2657.928 
2657.956 
2657.985 
2658.013 
2658.041 
2658.070 
2658.098 
2658.126 
2658.155 
2658.183 
2658.211 
2658.240 
2658.268 
2658.296 
2658.324 
2658.353 
2658.381 
2658.409 
2658.438 
2658.466 
2658.494 
2658.523 
2658.551 
2658.579 
2658.608 
2658.636 
2658.664 
2658.692 
2658.721 
2658.749 
2658.777 
2658.806 
2658.834 
2658.862 
2658.890 
2658.919 
2658.947 
2658.975 
2659.004 
2659.032 
2659.060 
2659.088 
2659.117 
2659.145 
2659.173 
2659.202 
2659.230 
2659.258 
2659.286 
2659.315 
2659.343 
2659.371 
2659.399 
2659.428 
2659.456 
2659.484 
2659.513 
2659.541 
2659.569 
2659.597 
2659.626 
2659.654 
2659.682 
2659.710 
2659.739 
2659.767 
2659.795 
2659.823 
2659.852 
2659.880 
2659.908 
2659.936 
2659.965 
2659.993 
2660.021 
2660.049 
2660.078 
2660.106 
2660.134 
2660.162 
2660.191 
2660.219 
2660.247 
2660.275 
2660.304 
2660.332 
2660.360 
2660.388 
2660.417 
2660.445 
2660.473 
2660.501 
2660.530 
2660.558 
2660.586 
2660.614 
2660.643 
2660.671 
2660.699 
2660.727 
2660.755 
2660.784 
2660.812 
2660.840 
2660.868 
2660.897 
2660.925 
2660.953 
2660.981 
2661.009 
2661.038 
2661.066 
2661.094 
2661.122 
2661.151 
2661.179 
2661.207 
2661.235 
2661.263 
2661.292 
2661.320 
2661.348 
2661.376 
2661.404 
2661.433 
2661.461 
2661.489 
2661.517 
2661.545 
2661.574 
2661.602 
2661.630 
2661.658 
2661.686 
2661.715 
2661.743 
2661.771 
2661.799 
2661.827 
2661.856 
2661.884 
2661.912 
2661.940 
2661.968 
2661.996 
2662.025 
2662.053 
2662.081 
2662.109 
2662.137 
2662.166 
2662.194 
2662.222 
2662.250 
2662.278 
2662.306 
2662.335 
2662.363 
2662.391 
2662.419 
2662.447 
2662.475 
2662.504 
2662.532 
2662.560 
2662.588 
2662.616 
2662.644 
2662.673 
2662.701 
2662.729 
2662.757 
2662.785 
2662.813 
2662.842 
2662.870 
2662.898 
2662.926 
2662.954 
2662.982 
2663.010 
2663.039 
2663.067 
2663.095 
2663.123 
2663.151 
2663.179 
2663.207 
2663.236 
2663.264 
2663.292 
2663.320 
2663.348 
2663.376 
2663.404 
2663.433 
2663.461 
2663.489 
2663.517 
2663.545 
2663.573 
2663.601 
2663.630 
2663.658 
2663.686 
2663.714 
2663.742 
2663.770 
2663.798 
2663.826 
2663.855 
2663.883 
2663.911 
2663.939 
2663.967 
2663.995 
2664.023 
2664.051 
2664.079 
2664.108 
2664.136 
2664.164 
2664.192 
2664.220 
2664.248 
2664.276 
2664.304 
2664.332 
2664.361 
2664.389 
2664.417 
2664.445 
2664.473 
2664.501 
2664.529 
2664.557 
2664.585 
2664.613 
2664.642 
2664.670 
2664.698 
2664.726 
2664.754 
2664.782 
2664.810 
2664.838 
2664.866 
2664.894 
2664.922 
2664.951 
2664.979 
2665.007 
2665.035 
2665.063 
2665.091 
2665.119 
2665.147 
2665.175 
2665.203 
2665.231 
2665.259 
2665.287 
2665.316 
2665.344 
2665.372 
2665.400 
2665.428 
2665.456 
2665.484 
2665.512 
2665.540 
2665.568 
2665.596 
2665.624 
2665.652 
2665.680 
2665.708 
2665.736 
2665.765 
2665.793 
2665.821 
2665.849 
2665.877 
2665.905 
2665.933 
2665.961 
2665.989 
2666.017 
2666.045 
2666.073 
2666.101 
2666.129 
2666.157 
2666.185 
2666.213 
2666.241 
2666.269 
2666.297 
2666.325 
2666.354 
2666.382 
2666.410 
2666.438 
2666.466 
2666.494 
2666.522 
2666.550 
2666.578 
2666.606 
2666.634 
2666.662 
2666.690 
2666.718 
2666.746 
2666.774 
2666.802 
2666.830 
2666.858 
2666.886 
2666.914 
2666.942 
2666.970 
2666.998 
2667.026 
2667.054 
2667.082 
2667.110 
2667.138 
2667.166 
2667.194 
2667.222 
2667.250 
2667.278 
2667.306 
2667.334 
2667.362 
2667.390 
2667.418 
2667.446 
2667.474 
2667.502 
2667.530 
2667.558 
2667.586 
2667.614 
2667.642 
2667.670 
2667.698 
2667.726 
2667.754 
2667.782 
2667.810 
2667.838 
2667.866 
2667.894 
2667.922 
2667.950 
2667.978 
2668.006 
2668.034 
2668.062 
2668.090 
2668.118 
2668.146 
2668.174 
2668.202 
2668.230 
2668.258 
2668.286 
2668.314 
2668.342 
2668.370 
2668.398 
2668.426 
2668.453 
2668.481 
2668.509 
2668.537 
2668.565 
2668.593 
2668.621 
2668.649 
2668.677 
2668.705 
2668.733 
2668.761 
2668.789 
2668.817 
2668.845 
2668.873 
2668.901 
2668.929 
2668.957 
2668.985 
2669.013 
2669.041 
2669.068 
2669.096 
2669.124 
2669.152 
2669.180 
2669.208 
2669.236 
2669.264 
2669.292 
2669.320 
2669.348 
2669.376 
2669.404 
2669.432 
2669.460 
2669.488 
2669.515 
2669.543 
2669.571 
2669.599 
2669.627 
2669.655 
2669.683 
2669.711 
2669.739 
2669.767 
2669.795 
2669.823 
2669.851 
2669.878 
2669.906 
2669.934 
2669.962 
2669.990 
2670.018 
2670.046 
2670.074 
2670.102 
2670.130 
2670.158 
2670.185 
2670.213 
2670.241 
2670.269 
2670.297 
2670.325 
2670.353 
2670.381 
2670.409 
2670.437 
2670.464 
2670.492 
2670.520 
2670.548 
