# Wavelength table for hrs,echb,23
2390.000 
2390.027 
2390.054 
2390.081 
2390.108 
2390.135 
2390.163 
2390.190 
2390.217 
2390.244 
2390.271 
2390.298 
2390.325 
2390.352 
2390.379 
2390.406 
2390.433 
2390.461 
2390.488 
2390.515 
2390.542 
2390.569 
2390.596 
2390.623 
2390.650 
2390.677 
2390.704 
2390.731 
2390.758 
2390.786 
2390.813 
2390.840 
2390.867 
2390.894 
2390.921 
2390.948 
2390.975 
2391.002 
2391.029 
2391.056 
2391.083 
2391.110 
2391.137 
2391.164 
2391.192 
2391.219 
2391.246 
2391.273 
2391.300 
2391.327 
2391.354 
2391.381 
2391.408 
2391.435 
2391.462 
2391.489 
2391.516 
2391.543 
2391.570 
2391.597 
2391.624 
2391.651 
2391.679 
2391.706 
2391.733 
2391.760 
2391.787 
2391.814 
2391.841 
2391.868 
2391.895 
2391.922 
2391.949 
2391.976 
2392.003 
2392.030 
2392.057 
2392.084 
2392.111 
2392.138 
2392.165 
2392.192 
2392.219 
2392.246 
2392.273 
2392.300 
2392.327 
2392.354 
2392.381 
2392.408 
2392.435 
2392.462 
2392.490 
2392.517 
2392.544 
2392.571 
2392.598 
2392.625 
2392.652 
2392.679 
2392.706 
2392.733 
2392.760 
2392.787 
2392.814 
2392.841 
2392.868 
2392.895 
2392.922 
2392.949 
2392.976 
2393.003 
2393.030 
2393.057 
2393.084 
2393.111 
2393.138 
2393.165 
2393.192 
2393.219 
2393.246 
2393.273 
2393.300 
2393.327 
2393.354 
2393.381 
2393.408 
2393.435 
2393.462 
2393.489 
2393.516 
2393.543 
2393.570 
2393.597 
2393.624 
2393.651 
2393.678 
2393.705 
2393.731 
2393.758 
2393.785 
2393.812 
2393.839 
2393.866 
2393.893 
2393.920 
2393.947 
2393.974 
2394.001 
2394.028 
2394.055 
2394.082 
2394.109 
2394.136 
2394.163 
2394.190 
2394.217 
2394.244 
2394.271 
2394.298 
2394.325 
2394.352 
2394.379 
2394.406 
2394.433 
2394.460 
2394.487 
2394.514 
2394.540 
2394.567 
2394.594 
2394.621 
2394.648 
2394.675 
2394.702 
2394.729 
2394.756 
2394.783 
2394.810 
2394.837 
2394.864 
2394.891 
2394.918 
2394.945 
2394.972 
2394.999 
2395.025 
2395.052 
2395.079 
2395.106 
2395.133 
2395.160 
2395.187 
2395.214 
2395.241 
2395.268 
2395.295 
2395.322 
2395.349 
2395.376 
2395.403 
2395.429 
2395.456 
2395.483 
2395.510 
2395.537 
2395.564 
2395.591 
2395.618 
2395.645 
2395.672 
2395.699 
2395.726 
2395.752 
2395.779 
2395.806 
2395.833 
2395.860 
2395.887 
2395.914 
2395.941 
2395.968 
2395.995 
2396.022 
2396.048 
2396.075 
2396.102 
2396.129 
2396.156 
2396.183 
2396.210 
2396.237 
2396.264 
2396.291 
2396.317 
2396.344 
2396.371 
2396.398 
2396.425 
2396.452 
2396.479 
2396.506 
2396.533 
2396.560 
2396.586 
2396.613 
2396.640 
2396.667 
2396.694 
2396.721 
2396.748 
2396.775 
2396.801 
2396.828 
2396.855 
2396.882 
2396.909 
2396.936 
2396.963 
2396.990 
2397.016 
2397.043 
2397.070 
2397.097 
2397.124 
2397.151 
2397.178 
2397.205 
2397.231 
2397.258 
2397.285 
2397.312 
2397.339 
2397.366 
2397.393 
2397.419 
2397.446 
2397.473 
2397.500 
2397.527 
2397.554 
2397.581 
2397.607 
2397.634 
2397.661 
2397.688 
2397.715 
2397.742 
2397.769 
2397.795 
2397.822 
2397.849 
2397.876 
2397.903 
2397.930 
2397.957 
2397.983 
2398.010 
2398.037 
2398.064 
2398.091 
2398.118 
2398.144 
2398.171 
2398.198 
2398.225 
2398.252 
2398.279 
2398.305 
2398.332 
2398.359 
2398.386 
2398.413 
2398.440 
2398.466 
2398.493 
2398.520 
2398.547 
2398.574 
2398.600 
2398.627 
2398.654 
2398.681 
2398.708 
2398.735 
2398.761 
2398.788 
2398.815 
2398.842 
2398.869 
2398.895 
2398.922 
2398.949 
2398.976 
2399.003 
2399.030 
2399.056 
2399.083 
2399.110 
2399.137 
2399.164 
2399.190 
2399.217 
2399.244 
2399.271 
2399.298 
2399.324 
2399.351 
2399.378 
2399.405 
2399.432 
2399.458 
2399.485 
2399.512 
2399.539 
2399.565 
2399.592 
2399.619 
2399.646 
2399.673 
2399.699 
2399.726 
2399.753 
2399.780 
2399.807 
2399.833 
2399.860 
2399.887 
2399.914 
2399.940 
2399.967 
2399.994 
2400.021 
2400.048 
2400.074 
2400.101 
2400.128 
2400.155 
2400.181 
2400.208 
2400.235 
2400.262 
2400.288 
2400.315 
2400.342 
2400.369 
2400.396 
2400.422 
2400.449 
2400.476 
2400.503 
2400.529 
2400.556 
2400.583 
2400.610 
2400.636 
2400.663 
2400.690 
2400.717 
2400.743 
2400.770 
2400.797 
2400.824 
2400.850 
2400.877 
2400.904 
2400.931 
2400.957 
2400.984 
2401.011 
2401.038 
2401.064 
2401.091 
2401.118 
2401.145 
2401.171 
2401.198 
2401.225 
2401.252 
2401.278 
2401.305 
2401.332 
2401.358 
2401.385 
2401.412 
2401.439 
2401.465 
2401.492 
2401.519 
2401.546 
2401.572 
2401.599 
2401.626 
2401.652 
2401.679 
2401.706 
2401.733 
2401.759 
2401.786 
2401.813 
2401.839 
2401.866 
2401.893 
2401.920 
2401.946 
2401.973 
2402.000 
2402.026 
2402.053 
2402.080 
2402.107 
2402.133 
2402.160 
2402.187 
2402.213 
2402.240 
2402.267 
2402.294 
2402.320 
2402.347 
2402.374 
2402.400 
2402.427 
2402.454 
2402.480 
2402.507 
2402.534 
2402.560 
2402.587 
2402.614 
2402.641 
2402.667 
2402.694 
2402.721 
2402.747 
2402.774 
2402.801 
2402.827 
2402.854 
2402.881 
2402.907 
2402.934 
2402.961 
2402.987 
2403.014 
2403.041 
2403.067 
2403.094 
2403.121 
2403.148 
2403.174 
2403.201 
2403.228 
2403.254 
2403.281 
2403.308 
2403.334 
2403.361 
2403.388 
2403.414 
2403.441 
2403.468 
2403.494 
2403.521 
2403.548 
2403.574 
2403.601 
2403.627 
2403.654 
2403.681 
2403.707 
2403.734 
2403.761 
2403.787 
2403.814 
2403.841 
2403.867 
2403.894 
2403.921 
2403.947 
2403.974 
2404.001 
2404.027 
2404.054 
2404.081 
2404.107 
2404.134 
2404.160 
2404.187 
2404.214 
2404.240 
2404.267 
2404.294 
2404.320 
2404.347 
2404.374 
2404.400 
2404.427 
2404.453 
2404.480 
2404.507 
2404.533 
2404.560 
2404.587 
2404.613 
2404.640 
2404.666 
2404.693 
2404.720 
2404.746 
2404.773 
2404.800 
2404.826 
2404.853 
2404.879 
2404.906 
2404.933 
2404.959 
2404.986 
2405.012 
2405.039 
2405.066 
2405.092 
2405.119 
2405.146 
2405.172 
2405.199 
2405.225 
2405.252 
2405.279 
2405.305 
2405.332 
2405.358 
2405.385 
2405.412 
2405.438 
2405.465 
2405.491 
2405.518 
2405.545 
2405.571 
2405.598 
2405.624 
2405.651 
2405.678 
2405.704 
2405.731 
2405.757 
2405.784 
2405.810 
2405.837 
2405.864 
2405.890 
2405.917 
2405.943 
2405.970 
2405.997 
2406.023 
2406.050 
2406.076 
2406.103 
2406.129 
2406.156 
2406.183 
2406.209 
2406.236 
2406.262 
2406.289 
2406.315 
2406.342 
2406.369 
2406.395 
2406.422 
2406.448 
2406.475 
2406.501 
2406.528 
2406.555 
2406.581 
2406.608 
2406.634 
2406.661 
2406.687 
2406.714 
2406.740 
2406.767 
2406.794 
2406.820 
2406.847 
2406.873 
2406.900 
2406.926 
2406.953 
2406.979 
2407.006 
2407.032 
2407.059 
2407.086 
2407.112 
2407.139 
2407.165 
2407.192 
2407.218 
2407.245 
2407.271 
2407.298 
2407.324 
2407.351 
2407.377 
2407.404 
2407.431 
2407.457 
2407.484 
2407.510 
2407.537 
2407.563 
2407.590 
2407.616 
2407.643 
2407.669 
2407.696 
2407.722 
2407.749 
2407.775 
2407.802 
2407.828 
2407.855 
2407.881 
2407.908 
2407.935 
2407.961 
2407.988 
2408.014 
2408.041 
2408.067 
2408.094 
2408.120 
2408.147 
2408.173 
2408.200 
2408.226 
2408.253 
2408.279 
2408.306 
2408.332 
2408.359 
2408.385 
2408.412 
2408.438 
2408.465 
2408.491 
2408.518 
2408.544 
2408.571 
2408.597 
2408.624 
2408.650 
2408.677 
2408.703 
2408.730 
2408.756 
2408.783 
2408.809 
2408.836 
2408.862 
2408.889 
2408.915 
2408.941 
2408.968 
2408.994 
2409.021 
2409.047 
2409.074 
2409.100 
2409.127 
2409.153 
2409.180 
2409.206 
2409.233 
2409.259 
2409.286 
2409.312 
2409.339 
2409.365 
2409.392 
2409.418 
2409.444 
2409.471 
2409.497 
2409.524 
2409.550 
2409.577 
2409.603 
2409.630 
2409.656 
2409.683 
2409.709 
2409.736 
2409.762 
2409.788 
2409.815 
2409.841 
2409.868 
2409.894 
2409.921 
2409.947 
2409.974 
2410.000 
2410.027 
2410.053 
2410.079 
2410.106 
2410.132 
2410.159 
2410.185 
2410.212 
2410.238 
2410.265 
2410.291 
2410.317 
2410.344 
2410.370 
2410.397 
2410.423 
2410.450 
2410.476 
2410.502 
2410.529 
2410.555 
2410.582 
2410.608 
2410.635 
2410.661 
2410.687 
2410.714 
2410.740 
2410.767 
2410.793 
2410.820 
2410.846 
2410.872 
2410.899 
2410.925 
2410.952 
2410.978 
2411.004 
2411.031 
2411.057 
2411.084 
2411.110 
2411.137 
2411.163 
2411.189 
2411.216 
2411.242 
2411.269 
2411.295 
2411.321 
2411.348 
2411.374 
2411.401 
2411.427 
2411.453 
2411.480 
2411.506 
2411.533 
2411.559 
2411.585 
2411.612 
2411.638 
2411.665 
2411.691 
2411.717 
2411.744 
2411.770 
2411.797 
2411.823 
2411.849 
2411.876 
2411.902 
2411.928 
2411.955 
2411.981 
2412.008 
2412.034 
2412.060 
2412.087 
2412.113 
2412.139 
2412.166 
2412.192 
2412.219 
2412.245 
2412.271 
2412.298 
2412.324 
2412.350 
2412.377 
2412.403 
2412.430 
2412.456 
2412.482 
2412.509 
2412.535 
2412.561 
2412.588 
2412.614 
2412.641 
2412.667 
2412.693 
2412.720 
2412.746 
2412.772 
2412.799 
2412.825 
2412.851 
2412.878 
2412.904 
2412.930 
2412.957 
2412.983 
2413.009 
2413.036 
2413.062 
2413.089 
2413.115 
2413.141 
2413.168 
2413.194 
2413.220 
2413.247 
2413.273 
2413.299 
2413.326 
2413.352 
2413.378 
2413.405 
2413.431 
2413.457 
2413.484 
2413.510 
2413.536 
2413.563 
2413.589 
2413.615 
2413.642 
2413.668 
2413.694 
2413.721 
2413.747 
2413.773 
2413.800 
2413.826 
2413.852 
2413.878 
2413.905 
2413.931 
2413.957 
2413.984 
2414.010 
2414.036 
2414.063 
2414.089 
2414.115 
2414.142 
2414.168 
2414.194 
2414.221 
2414.247 
2414.273 
2414.299 
2414.326 
2414.352 
2414.378 
2414.405 
2414.431 
2414.457 
2414.484 
2414.510 
2414.536 
2414.562 
2414.589 
2414.615 
2414.641 
2414.668 
2414.694 
2414.720 
2414.747 
2414.773 
2414.799 
2414.825 
2414.852 
2414.878 
2414.904 
2414.931 
2414.957 
2414.983 
2415.009 
2415.036 
2415.062 
2415.088 
2415.115 
2415.141 
2415.167 
2415.193 
2415.220 
2415.246 
2415.272 
2415.298 
2415.325 
2415.351 
2415.377 
2415.404 
2415.430 
2415.456 
2415.482 
2415.509 
2415.535 
2415.561 
2415.587 
2415.614 
2415.640 
2415.666 
2415.692 
2415.719 
2415.745 
2415.771 
2415.797 
2415.824 
2415.850 
2415.876 
2415.902 
2415.929 
2415.955 
2415.981 
2416.007 
2416.034 
2416.060 
2416.086 
2416.112 
2416.139 
2416.165 
2416.191 
2416.217 
2416.244 
2416.270 
2416.296 
2416.322 
2416.349 
2416.375 
2416.401 
2416.427 
2416.454 
2416.480 
2416.506 
2416.532 
2416.559 
2416.585 
2416.611 
2416.637 
2416.663 
2416.690 
2416.716 
2416.742 
2416.768 
2416.795 
2416.821 
2416.847 
2416.873 
2416.899 
2416.926 
2416.952 
2416.978 
2417.004 
2417.031 
2417.057 
2417.083 
2417.109 
2417.135 
2417.162 
2417.188 
2417.214 
2417.240 
2417.266 
2417.293 
2417.319 
2417.345 
2417.371 
2417.397 
2417.424 
2417.450 
2417.476 
2417.502 
2417.528 
2417.555 
2417.581 
2417.607 
2417.633 
2417.659 
2417.686 
2417.712 
2417.738 
2417.764 
2417.790 
2417.817 
2417.843 
2417.869 
2417.895 
2417.921 
2417.948 
2417.974 
2418.000 
2418.026 
2418.052 
2418.078 
2418.105 
2418.131 
2418.157 
2418.183 
2418.209 
2418.235 
2418.262 
2418.288 
2418.314 
2418.340 
2418.366 
2418.393 
2418.419 
2418.445 
2418.471 
2418.497 
2418.523 
2418.550 
2418.576 
2418.602 
2418.628 
2418.654 
2418.680 
2418.706 
2418.733 
2418.759 
2418.785 
2418.811 
2418.837 
2418.863 
2418.890 
2418.916 
2418.942 
2418.968 
2418.994 
2419.020 
2419.046 
2419.073 
2419.099 
2419.125 
2419.151 
2419.177 
2419.203 
2419.229 
2419.256 
2419.282 
2419.308 
2419.334 
2419.360 
2419.386 
2419.412 
2419.439 
2419.465 
2419.491 
2419.517 
2419.543 
2419.569 
2419.595 
2419.621 
2419.648 
2419.674 
2419.700 
2419.726 
2419.752 
2419.778 
2419.804 
2419.830 
2419.857 
2419.883 
2419.909 
2419.935 
2419.961 
2419.987 
2420.013 
2420.039 
2420.066 
2420.092 
2420.118 
2420.144 
2420.170 
2420.196 
2420.222 
2420.248 
2420.274 
2420.301 
2420.327 
2420.353 
2420.379 
2420.405 
2420.431 
2420.457 
2420.483 
2420.509 
2420.535 
2420.562 
2420.588 
2420.614 
2420.640 
2420.666 
2420.692 
2420.718 
2420.744 
2420.770 
2420.796 
2420.822 
2420.849 
2420.875 
2420.901 
2420.927 
2420.953 
2420.979 
2421.005 
2421.031 
2421.057 
2421.083 
2421.109 
2421.135 
2421.162 
2421.188 
2421.214 
2421.240 
2421.266 
2421.292 
2421.318 
2421.344 
2421.370 
2421.396 
2421.422 
2421.448 
2421.474 
2421.500 
2421.527 
2421.553 
2421.579 
2421.605 
2421.631 
2421.657 
2421.683 
2421.709 
2421.735 
2421.761 
2421.787 
2421.813 
2421.839 
2421.865 
2421.891 
2421.917 
2421.943 
2421.969 
2421.996 
2422.022 
2422.048 
2422.074 
2422.100 
2422.126 
2422.152 
2422.178 
2422.204 
2422.230 
2422.256 
2422.282 
2422.308 
2422.334 
2422.360 
2422.386 
2422.412 
2422.438 
2422.464 
2422.490 
2422.516 
2422.542 
2422.568 
2422.594 
2422.620 
2422.646 
2422.673 
2422.699 
2422.725 
2422.751 
2422.777 
2422.803 
2422.829 
2422.855 
2422.881 
2422.907 
2422.933 
2422.959 
2422.985 
2423.011 
2423.037 
2423.063 
2423.089 
2423.115 
2423.141 
2423.167 
2423.193 
2423.219 
2423.245 
2423.271 
2423.297 
2423.323 
2423.349 
2423.375 
2423.401 
2423.427 
2423.453 
2423.479 
2423.505 
2423.531 
2423.557 
2423.583 
2423.609 
2423.635 
2423.661 
2423.687 
2423.713 
2423.739 
2423.765 
2423.791 
2423.817 
2423.843 
2423.869 
2423.895 
2423.921 
2423.947 
2423.973 
2423.999 
2424.025 
2424.051 
2424.077 
2424.103 
2424.129 
2424.155 
2424.181 
2424.207 
2424.233 
2424.258 
2424.284 
2424.310 
2424.336 
2424.362 
2424.388 
2424.414 
2424.440 
2424.466 
2424.492 
2424.518 
2424.544 
2424.570 
2424.596 
2424.622 
2424.648 
2424.674 
2424.700 
2424.726 
2424.752 
2424.778 
2424.804 
2424.830 
2424.856 
2424.882 
2424.908 
2424.933 
2424.959 
2424.985 
2425.011 
2425.037 
2425.063 
2425.089 
2425.115 
2425.141 
2425.167 
2425.193 
2425.219 
2425.245 
2425.271 
2425.297 
2425.323 
2425.349 
2425.375 
2425.400 
2425.426 
2425.452 
2425.478 
2425.504 
2425.530 
2425.556 
2425.582 
2425.608 
2425.634 
2425.660 
2425.686 
2425.712 
2425.738 
2425.763 
2425.789 
2425.815 
2425.841 
2425.867 
2425.893 
2425.919 
2425.945 
2425.971 
2425.997 
2426.023 
2426.049 
2426.074 
2426.100 
2426.126 
2426.152 
2426.178 
2426.204 
2426.230 
2426.256 
2426.282 
2426.308 
2426.334 
2426.359 
2426.385 
2426.411 
2426.437 
2426.463 
2426.489 
2426.515 
2426.541 
2426.567 
2426.592 
2426.618 
2426.644 
2426.670 
2426.696 
2426.722 
2426.748 
2426.774 
2426.800 
2426.826 
2426.851 
2426.877 
2426.903 
2426.929 
2426.955 
2426.981 
2427.007 
2427.033 
2427.058 
2427.084 
2427.110 
2427.136 
2427.162 
2427.188 
2427.214 
2427.240 
2427.265 
2427.291 
2427.317 
2427.343 
2427.369 
2427.395 
2427.421 
2427.447 
2427.472 
2427.498 
2427.524 
2427.550 
2427.576 
2427.602 
2427.628 
2427.653 
2427.679 
2427.705 
2427.731 
2427.757 
2427.783 
2427.809 
2427.834 
2427.860 
2427.886 
2427.912 
2427.938 
2427.964 
2427.990 
2428.015 
2428.041 
2428.067 
2428.093 
2428.119 
2428.145 
2428.170 
2428.196 
2428.222 
2428.248 
2428.274 
2428.300 
2428.325 
2428.351 
2428.377 
2428.403 
2428.429 
2428.455 
2428.480 
2428.506 
2428.532 
2428.558 
2428.584 
2428.610 
2428.635 
2428.661 
2428.687 
2428.713 
2428.739 
2428.765 
2428.790 
2428.816 
2428.842 
2428.868 
2428.894 
2428.919 
2428.945 
2428.971 
2428.997 
2429.023 
2429.049 
2429.074 
2429.100 
2429.126 
2429.152 
2429.178 
2429.203 
2429.229 
2429.255 
2429.281 
2429.307 
2429.332 
2429.358 
2429.384 
2429.410 
2429.436 
2429.461 
2429.487 
2429.513 
2429.539 
2429.565 
2429.590 
2429.616 
2429.642 
2429.668 
2429.694 
2429.719 
2429.745 
2429.771 
2429.797 
2429.822 
2429.848 
2429.874 
2429.900 
2429.926 
2429.951 
2429.977 
2430.003 
2430.029 
2430.054 
2430.080 
2430.106 
2430.132 
2430.158 
2430.183 
2430.209 
2430.235 
2430.261 
2430.286 
2430.312 
2430.338 
2430.364 
2430.390 
2430.415 
2430.441 
2430.467 
2430.493 
2430.518 
2430.544 
2430.570 
2430.596 
2430.621 
2430.647 
2430.673 
2430.699 
2430.724 
2430.750 
2430.776 
2430.802 
2430.827 
2430.853 
2430.879 
2430.905 
2430.930 
2430.956 
2430.982 
2431.008 
2431.033 
2431.059 
2431.085 
2431.111 
2431.136 
2431.162 
2431.188 
2431.214 
2431.239 
2431.265 
2431.291 
2431.317 
2431.342 
2431.368 
2431.394 
2431.419 
2431.445 
2431.471 
2431.497 
2431.522 
2431.548 
2431.574 
2431.600 
2431.625 
2431.651 
2431.677 
2431.702 
2431.728 
2431.754 
2431.780 
2431.805 
2431.831 
2431.857 
2431.882 
2431.908 
2431.934 
2431.960 
2431.985 
2432.011 
2432.037 
2432.062 
2432.088 
2432.114 
2432.140 
2432.165 
2432.191 
2432.217 
2432.242 
2432.268 
2432.294 
2432.319 
2432.345 
2432.371 
2432.397 
2432.422 
2432.448 
2432.474 
2432.499 
2432.525 
2432.551 
2432.576 
2432.602 
2432.628 
2432.654 
2432.679 
2432.705 
2432.731 
2432.756 
2432.782 
2432.808 
2432.833 
2432.859 
2432.885 
2432.910 
2432.936 
2432.962 
2432.987 
2433.013 
2433.039 
2433.064 
2433.090 
2433.116 
2433.141 
2433.167 
2433.193 
2433.218 
2433.244 
2433.270 
2433.295 
2433.321 
2433.347 
2433.372 
2433.398 
2433.424 
2433.449 
2433.475 
2433.501 
2433.526 
2433.552 
2433.578 
2433.603 
2433.629 
2433.655 
2433.680 
2433.706 
2433.732 
2433.757 
2433.783 
2433.809 
2433.834 
2433.860 
2433.886 
2433.911 
2433.937 
2433.963 
2433.988 
2434.014 
2434.039 
2434.065 
2434.091 
2434.116 
2434.142 
2434.168 
2434.193 
2434.219 
2434.245 
2434.270 
2434.296 
2434.321 
2434.347 
2434.373 
2434.398 
2434.424 
2434.450 
2434.475 
2434.501 
2434.527 
2434.552 
2434.578 
2434.603 
2434.629 
2434.655 
2434.680 
2434.706 
2434.731 
2434.757 
2434.783 
2434.808 
2434.834 
2434.860 
2434.885 
2434.911 
2434.936 
2434.962 
2434.988 
2435.013 
2435.039 
2435.064 
2435.090 
2435.116 
2435.141 
2435.167 
2435.192 
2435.218 
2435.244 
2435.269 
2435.295 
2435.320 
2435.346 
2435.372 
2435.397 
2435.423 
2435.448 
2435.474 
2435.500 
2435.525 
2435.551 
2435.576 
2435.602 
2435.628 
2435.653 
2435.679 
2435.704 
2435.730 
2435.756 
2435.781 
2435.807 
2435.832 
2435.858 
2435.883 
2435.909 
2435.935 
2435.960 
2435.986 
2436.011 
2436.037 
2436.062 
2436.088 
2436.114 
2436.139 
2436.165 
2436.190 
2436.216 
2436.241 
2436.267 
2436.293 
2436.318 
2436.344 
2436.369 
2436.395 
2436.420 
2436.446 
2436.472 
2436.497 
2436.523 
2436.548 
2436.574 
2436.599 
2436.625 
2436.650 
2436.676 
2436.701 
2436.727 
2436.753 
2436.778 
2436.804 
2436.829 
2436.855 
2436.880 
2436.906 
2436.931 
2436.957 
2436.983 
2437.008 
2437.034 
2437.059 
2437.085 
2437.110 
2437.136 
2437.161 
2437.187 
2437.212 
2437.238 
2437.263 
2437.289 
2437.314 
2437.340 
2437.366 
2437.391 
2437.417 
2437.442 
2437.468 
2437.493 
2437.519 
2437.544 
2437.570 
2437.595 
2437.621 
2437.646 
2437.672 
2437.697 
2437.723 
2437.748 
2437.774 
2437.799 
2437.825 
2437.850 
2437.876 
2437.901 
2437.927 
2437.952 
2437.978 
2438.003 
2438.029 
2438.054 
2438.080 
2438.105 
2438.131 
2438.156 
2438.182 
2438.207 
2438.233 
2438.258 
2438.284 
2438.309 
2438.335 
2438.360 
2438.386 
2438.411 
2438.437 
2438.462 
2438.488 
2438.513 
2438.539 
2438.564 
2438.590 
2438.615 
2438.641 
2438.666 
2438.692 
2438.717 
2438.743 
2438.768 
2438.794 
2438.819 
2438.845 
2438.870 
2438.896 
2438.921 
2438.947 
2438.972 
2438.998 
2439.023 
2439.048 
2439.074 
2439.099 
2439.125 
2439.150 
2439.176 
2439.201 
2439.227 
2439.252 
2439.278 
2439.303 
2439.329 
2439.354 
2439.380 
2439.405 
2439.430 
2439.456 
2439.481 
2439.507 
2439.532 
2439.558 
2439.583 
2439.609 
2439.634 
2439.660 
2439.685 
2439.710 
2439.736 
2439.761 
2439.787 
2439.812 
2439.838 
2439.863 
2439.889 
2439.914 
2439.939 
2439.965 
2439.990 
2440.016 
2440.041 
2440.067 
2440.092 
2440.117 
2440.143 
2440.168 
2440.194 
2440.219 
2440.245 
2440.270 
2440.296 
2440.321 
2440.346 
2440.372 
2440.397 
2440.423 
2440.448 
2440.473 
2440.499 
2440.524 
2440.550 
2440.575 
2440.601 
2440.626 
2440.651 
2440.677 
2440.702 
2440.728 
2440.753 
2440.778 
2440.804 
2440.829 
2440.855 
2440.880 
2440.906 
2440.931 
2440.956 
2440.982 
2441.007 
2441.033 
2441.058 
2441.083 
2441.109 
2441.134 
2441.160 
2441.185 
2441.210 
2441.236 
2441.261 
2441.287 
2441.312 
2441.337 
2441.363 
2441.388 
2441.414 
2441.439 
2441.464 
2441.490 
2441.515 
2441.540 
2441.566 
2441.591 
2441.617 
2441.642 
2441.667 
2441.693 
2441.718 
2441.743 
2441.769 
2441.794 
2441.820 
2441.845 
2441.870 
2441.896 
2441.921 
2441.946 
2441.972 
2441.997 
2442.023 
2442.048 
2442.073 
2442.099 
2442.124 
2442.149 
2442.175 
2442.200 
2442.226 
2442.251 
2442.276 
2442.302 
2442.327 
